File: Spicy-Raman/model_train_and_validate/Raman_Data/polyethylene/20191004 Set3Sample3_4 5_.txt
3201.26	16.8451
3193.54	25.2219
3185.8	54.5403
3178.05	66.9946
3170.28	33.4315
3162.49	66.7314
3154.69	12.4875
3146.87	24.9258
3139.04	41.4612
3131.19	33.1036
3123.33	28.9085
3115.45	57.7028
3107.56	57.5888
3099.65	53.3697
3091.73	24.5834
3083.79	28.6239
3075.83	44.8914
3067.86	36.6565
3059.87	52.8433
3051.87	16.2272
3043.85	4.04875
3035.81	36.3664
3027.76	32.2614
3019.69	52.3205
3011.61	16.0666
3003.51	48.1038
2995.39	36.0059
2987.26	31.9414
2979.11	59.7707
2970.94	67.6049
2962.76	59.5322
2954.57	71.2958
2946.35	79.0591
2938.12	90.7359
2929.87	78.7428
2921.61	78.5849
2913.33	109.798
2905.03	117.405
2896.72	117.169
2888.39	187.094
2880.04	186.717
2871.68	128.11
2863.3	224.71
2854.9	177.859
2846.48	185.218
2838.05	96.2728
2829.6	53.8039
2821.14	61.366
2812.66	38.2762
2804.15	22.9193
2795.64	34.3093
2787.1	15.2177
2778.55	37.9671
2769.98	30.312
2761.39	26.4692
2752.79	41.51
2744.17	37.6596
2735.53	48.8579
2726.87	33.7559
2718.2	59.8882
2709.5	41.0892
2700.79	33.5499
2692.07	52.0822
2683.32	37.1256
2674.56	25.9348
2665.78	48.0661
2656.98	44.2779
2648.16	55.234
2639.32	18.3736
2630.47	55.0077
2621.6	40.2562
2612.71	40.1735
2603.8	51.0248
2594.87	72.7426
2585.92	61.704
2576.96	43.466
2567.98	21.6882
2558.98	36.0725
2549.96	43.1976
2540.92	35.9237
2531.86	39.4343
2522.79	64.3954
2513.69	32.1311
2504.58	24.9391
2495.45	42.664
2486.29	24.8357
2477.12	42.4871
2467.93	24.7327
2458.73	42.3107
2449.5	42.2227
2440.25	31.6011
2430.98	45.5509
2421.7	45.4559
2412.39	48.8503
2403.07	55.7124
2393.72	41.697
2384.36	31.2073
2374.98	51.9033
2365.57	58.7006
2356.15	58.5775
2346.71	41.2621
2337.25	37.7442
2327.76	71.9058
2318.26	37.5857
2308.74	54.5551
2299.2	47.6352
2289.63	81.4884
2280.05	33.8819
2270.45	47.3345
2260.82	23.6173
2251.18	67.3354
2241.52	53.7544
2231.83	63.6982
2222.13	70.2541
2212.4	90.1353
2202.65	66.6252
2192.89	63.1596
2183.1	69.6596
2173.29	62.8914
2163.46	72.6666
2153.61	69.2158
2143.74	69.0683
2133.84	52.5112
2123.93	75.3238
2114	75.1628
2104.04	68.4802
2094.06	65.0797
2084.06	68.1874
2074.04	93.9617
2064	54.9629
2053.93	93.5589
2043.85	103.016
2033.74	77.0957
2023.61	73.7244
2013.46	76.7642
2003.29	67.0239
1993.09	124.204
1982.88	117.581
1972.64	107.814
1962.38	155.043
1952.09	126.292
1941.79	119.717
1931.46	125.745
1921.11	163.114
1910.74	172.15
1900.34	159.283
1889.92	158.937
1879.48	192.797
1869.02	183.069
1858.53	191.958
1848.02	210.075
1837.49	166.46
1826.94	233.766
1816.36	227.116
1805.75	241.931
1795.13	250.569
1784.48	250.019
1773.81	240.344
1763.11	294.458
1752.4	242.318
1741.65	296.187
1730.89	280.457
1720.1	267.803
1709.28	309.246
1698.45	323.542
1687.58	298.915
1676.7	340.009
1665.79	336.281
1654.85	397.893
1643.9	349.607
1632.91	357.7
1621.91	333.309
1610.88	356.114
1599.82	358.258
1588.74	348.671
1577.63	374.206
1566.5	344.202
1555.35	413.285
1544.17	400.746
1532.96	396.953
1521.73	396.065
1510.48	395.178
1499.2	414.439
1487.89	430.739
1476.56	489.941
1465.2	594.613
1453.82	576.162
1442.41	714.313
1430.98	553.694
1419.52	509.95
1408.03	514.453
1396.52	482.268
1384.98	548.711
1373.42	547.47
1361.83	557.435
1350.21	558.966
1338.57	580.006
1326.9	606.511
1315.2	596.805
1303.48	650.839
1291.73	574.75
1279.96	548.628
1268.15	412.596
1256.32	365
1244.47	347.737
1232.58	352.406
1220.67	335.246
1208.73	326.32
1196.77	325.572
1184.77	335.652
1172.75	321.378
1160.7	301.778
1148.62	287.642
1136.52	332.574
1124.39	355.89
1112.23	290.996
1100.04	311.632
1087.82	244.478
1075.57	257.168
1063.3	388.827
1051	226.949
1038.67	226.423
1026.31	210.137
1013.92	235.854
1001.5	196.088
989.056	206.065
976.581	202.982
964.076	210.297
951.542	168.363
938.979	196.395
926.387	170.154
913.765	241.773
901.113	241.207
888.431	266.241
875.72	245.183
862.979	244.607
850.207	251.657
837.406	230.777
824.574	202.402
811.712	217.069
798.819	239.219
785.896	213.532
772.943	203.002
759.958	220.023
746.943	172.109
733.897	199.073
720.819	186.187
707.711	212.987
694.571	234.716
681.4	248.946
668.198	218.845
654.963	264.93
641.698	247.167
628.4	222.162
615.07	236.243
601.709	257.544
588.315	256.926
574.889	258.727
561.431	231.571
547.94	252.671
534.417	242.46
520.861	251.455
507.273	267.571
493.651	264.542
479.996	278.167
466.309	282.237
452.588	300.481
438.834	280.871
425.046	294.316
411.225	338.228
397.37	330.376
383.481	357.62
369.558	314.778
355.601	362.856
341.61	359.649
327.585	358.77
313.526	387.908
299.431	400.778
285.303	457.237
271.139	424.026
256.941	413.838
242.708	469.839
228.439	475.508
214.135	440.292
199.796	489.013
185.422	494.58
171.011	545.171
156.565	575.282
142.084	607.481
127.566	706.597
113.012	762.836
100.669	701.135