File: Spicy-Raman/model_train_and_validate/Raman_Data/polyethylene/20191004 Set3Sample3_9 5_.txt
3201.26	42.1129
3193.54	46.2402
3185.8	25.1724
3178.05	20.9358
3170.28	37.6104
3162.49	37.5364
3154.69	54.1126
3146.87	49.8517
3139.04	0
3131.19	41.3795
3123.33	28.9085
3115.45	61.8245
3107.56	28.7944
3099.65	53.3697
3091.73	28.6807
3083.79	32.713
3075.83	53.0534
3067.86	28.5106
3059.87	20.3244
3051.87	8.11361
3043.85	24.2925
3035.81	40.4071
3027.76	20.1634
3019.69	20.1233
3011.61	20.0832
3003.51	20.0432
2995.39	24.004
2987.26	27.9488
2979.11	43.8319
2970.94	47.7211
2962.76	63.501
2954.57	99.0219
2946.35	59.2943
2938.12	67.0657
2929.87	110.24
2921.61	74.6557
2913.33	109.798
2905.03	133.059
2896.72	121.075
2888.39	175.4
2880.04	194.497
2871.68	186.342
2863.3	244.081
2854.9	177.859
2846.48	185.218
2838.05	73.1674
2829.6	61.4902
2821.14	46.0245
2812.66	72.7248
2804.15	53.4783
2795.64	26.685
2787.1	22.8265
2778.55	37.9671
2769.98	11.367
2761.39	34.0318
2752.79	30.1891
2744.17	41.4256
2735.53	90.1992
2726.87	82.5143
2718.2	63.6312
2709.5	59.7661
2700.79	33.5499
2692.07	37.2015
2683.32	22.2753
2674.56	51.8695
2665.78	51.7635
2656.98	66.4168
2648.16	11.0468
2639.32	14.6989
2630.47	7.33436
2621.6	40.2562
2612.71	65.7384
2603.8	47.3802
2594.87	50.9199
2585.92	25.4075
2576.96	47.0882
2567.98	18.0735
2558.98	57.716
2549.96	17.999
2540.92	35.9237
2531.86	71.6988
2522.79	35.7752
2513.69	64.2621
2504.58	46.3154
2495.45	49.7747
2486.29	56.7674
2477.12	63.7307
2467.93	81.2645
2458.73	38.7848
2449.5	45.7412
2440.25	31.6011
2430.98	35.0391
2421.7	41.9593
2412.39	55.829
2403.07	55.7124
2393.72	52.1212
2384.36	62.4146
2374.98	51.9033
2365.57	37.9827
2356.15	62.0233
2346.71	37.8236
2337.25	44.6068
2327.76	58.2094
2318.26	51.2533
2308.74	68.1939
2299.2	51.0378
2289.63	61.1163
2280.05	67.7638
2270.45	33.8104
2260.82	64.1041
2251.18	60.6018
2241.52	47.0351
2231.83	53.6406
2222.13	50.1815
2212.4	80.1202
2202.65	83.2815
2192.89	63.1596
2183.1	92.8795
2173.29	72.8216
2163.46	62.7575
2153.61	52.7359
2143.74	85.5132
2133.84	78.7669
2123.93	78.5987
2114	84.9667
2104.04	58.6973
2094.06	100.874
2084.06	77.9284
2074.04	84.2415
2064	74.3615
2053.93	90.3328
2043.85	96.5772
2033.74	118.856
2023.61	92.9568
2013.46	99.1537
2003.29	121.281
1993.09	108.281
1982.88	101.691
1972.64	107.814
1962.38	148.714
1952.09	129.449
1941.79	148.071
1931.46	157.181
1921.11	138.02
1910.74	156.5
1900.34	187.392
1889.92	208.8
1879.48	177.249
1869.02	245.126
1858.53	179.574
1848.02	182.271
1837.49	206.534
1826.94	187.628
1816.36	242.462
1805.75	235.807
1795.13	235.29
1784.48	280.51
1773.81	240.344
1763.11	309.636
1752.4	281.695
1741.65	259.919
1730.89	283.473
1720.1	273.821
1709.28	342.272
1698.45	299.576
1687.58	304.893
1676.7	325.097
1665.79	336.281
1654.85	365.23
1643.9	349.607
1632.91	393.175
1621.91	374.604
1610.88	382.601
1599.82	334.766
1588.74	407.271
1577.63	406.364
1566.5	408.375
1555.35	395.822
1544.17	409.458
1532.96	472.287
1521.73	416.302
1510.48	403.832
1499.2	425.952
1487.89	479.557
1476.56	458.424
1465.2	588.895
1453.82	633.208
1442.41	694.392
1430.98	567.891
1419.52	526.948
1408.03	531.413
1396.52	516.111
1384.98	526.2
1373.42	510.972
1361.83	568.64
1350.21	667.965
1338.57	605.103
1326.9	581.472
1315.2	555.168
1303.48	645.3
1291.73	627.251
1279.96	476.948
1268.15	451.105
1256.32	406.165
1244.47	388.809
1232.58	382.456
1220.67	348.874
1208.73	310.004
1196.77	339.137
1184.77	357.307
1172.75	345.683
1160.7	336.805
1148.62	287.642
1136.52	335.256
1124.39	339.835
1112.23	331.042
1100.04	348.922
1087.82	273.709
1075.57	304.89
1063.3	375.601
1051	237.505
1038.67	244.853
1026.31	244.284
1013.92	230.613
1001.5	224.847
989.056	234.757
976.581	171.754
964.076	218.086
951.542	246.069
938.979	214.484
926.387	188.201
913.765	208.337
901.113	228.377
888.431	263.681
875.72	247.737
862.979	229.319
850.207	254.199
837.406	248.529
824.574	222.642
811.712	209.497
798.819	214.038
785.896	253.726
772.943	220.545
759.958	252.526
746.943	241.95
733.897	233.91
720.819	248.25
707.711	252.612
694.571	252.011
681.4	268.664
668.198	275.4
654.963	247.759
641.698	239.825
628.4	231.928
615.07	265.469
601.709	281.841
588.315	264.198
574.889	282.907
561.431	301.525
547.94	283.955
534.417	302.475
520.861	294.562
507.273	281.906
493.651	285.991
479.996	287.677
466.309	308.326
452.588	288.651
438.834	330.436
425.046	324.925
411.225	380.506
397.37	433.472
383.481	402.03
369.558	410.377
355.601	418.679
341.61	403.735
327.585	374.972
313.526	438.706
299.431	426.114
285.303	434.26
271.139	446.946
256.941	473.284
242.708	483.524
228.439	518.736
214.135	533.344
199.796	493.541
185.422	528.455
171.011	592.479
156.565	620.226
142.084	708.354
127.566	751.319
113.012	847.596
100.669	705.586