File: Spicy-Raman/model_train_and_validate/Raman_Data/polyethylene/20191004 Set3Sample3_5 5_.txt
3201.26	46.3241
3193.54	42.0366
3185.8	46.1494
3178.05	50.246
3170.28	12.5368
3162.49	50.0486
3154.69	8.32501
3146.87	29.0802
3139.04	37.3151
3131.19	4.13795
3123.33	-4.12978
3115.45	45.3379
3107.56	41.1349
3099.65	45.1589
3091.73	36.8751
3083.79	36.8022
3075.83	24.4862
3067.86	52.9483
3059.87	32.519
3051.87	32.4544
3043.85	52.6338
3035.81	36.3664
3027.76	36.2941
3019.69	48.2959
3011.61	44.1831
3003.51	64.1384
2995.39	80.0132
2987.26	43.9195
2979.11	71.7248
2970.94	67.6049
2962.76	43.6569
2954.57	71.2958
2946.35	114.636
2938.12	98.626
2929.87	141.737
2921.61	113.948
2913.33	133.326
2905.03	121.318
2896.72	132.792
2888.39	202.685
2880.04	221.727
2871.68	131.992
2863.3	139.475
2854.9	177.859
2846.48	173.641
2838.05	69.3164
2829.6	69.1765
2821.14	30.683
2812.66	49.7591
2804.15	45.8385
2795.64	72.4307
2787.1	15.2177
2778.55	26.577
2769.98	56.8351
2761.39	49.1571
2752.79	52.8309
2744.17	22.5958
2735.53	48.8579
2726.87	67.5117
2718.2	104.804
2709.5	44.8246
2700.79	41.0054
2692.07	85.5635
2683.32	51.9758
2674.56	37.0497
2665.78	40.6713
2656.98	36.8982
2648.16	33.1404
2639.32	55.1207
2630.47	58.6749
2621.6	43.9158
2612.71	29.2171
2603.8	54.6694
2594.87	69.1055
2585.92	43.5558
2576.96	32.5995
2567.98	25.3029
2558.98	64.9305
2549.96	32.3982
2540.92	61.0702
2531.86	68.1138
2522.79	53.6629
2513.69	96.3932
2504.58	57.0035
2495.45	67.5514
2486.29	42.5755
2477.12	67.2713
2467.93	70.6648
2458.73	52.8884
2449.5	77.4082
2440.25	66.7134
2430.98	70.0783
2421.7	55.9457
2412.39	69.7862
2403.07	73.1225
2393.72	69.4949
2384.36	52.0122
2374.98	44.9829
2365.57	51.7946
2356.15	68.9148
2346.71	68.7702
2337.25	65.1946
2327.76	65.0576
2318.26	92.2559
2308.74	81.8327
2299.2	47.6352
2289.63	91.6744
2280.05	57.5992
2270.45	84.526
2260.82	60.7302
2251.18	53.8683
2241.52	73.9122
2231.83	77.1083
2222.13	83.6359
2212.4	76.7819
2202.65	76.619
2192.89	76.4563
2183.1	122.734
2173.29	92.682
2163.46	75.9696
2153.61	82.3998
2143.74	62.4904
2133.84	91.8947
2123.93	88.4236
2114	98.0385
2104.04	107.612
2094.06	100.874
2084.06	113.646
2074.04	103.682
2064	129.324
2053.93	80.6543
2043.85	138.427
2033.74	115.644
2023.61	153.86
2013.46	105.551
2003.29	153.197
1993.09	124.204
1982.88	155.715
1972.64	136.353
1962.38	180.356
1952.09	151.55
1941.79	176.425
1931.46	182.33
1921.11	169.388
1910.74	219.1
1900.34	215.501
1889.92	205.683
1879.48	242.551
1869.02	235.817
1858.53	241.496
1848.02	268.773
1837.49	271.269
1826.94	261.449
1816.36	242.462
1805.75	244.994
1795.13	265.847
1784.48	307.951
1773.81	316.402
1763.11	321.779
1752.4	327.13
1741.65	365.7
1730.89	355.848
1720.1	349.047
1709.28	363.289
1698.45	359.491
1687.58	364.676
1676.7	399.66
1665.79	461.271
1654.85	478.066
1643.9	432.565
1632.91	452.299
1621.91	436.547
1610.88	409.089
1599.82	463.974
1588.74	395.551
1577.63	461.91
1566.5	449.213
1555.35	486.046
1544.17	455.921
1532.96	498.364
1521.73	531.942
1510.48	475.945
1499.2	506.537
1487.89	525.502
1476.56	573.03
1465.2	694.668
1453.82	735.89
1442.41	839.531
1430.98	678.63
1419.52	626.105
1408.03	624.693
1396.52	609.18
1384.98	619.059
1373.42	648.541
1361.83	652.675
1350.21	693.118
1338.57	725.008
1326.9	753.966
1315.2	702.287
1303.48	764.389
1291.73	757.123
1279.96	686.474
1268.15	541.876
1256.32	485.752
1244.47	492.856
1232.58	448.02
1220.67	430.641
1208.73	399.742
1196.77	398.825
1184.77	408.737
1172.75	426.703
1160.7	420.333
1148.62	368.289
1136.52	415.718
1124.39	457.573
1112.23	397.784
1100.04	383.548
1087.82	417.207
1075.57	387.078
1063.3	521.08
1051	345.702
1038.67	334.369
1026.31	325.712
1013.92	285.646
1001.5	300.668
989.056	305.185
976.581	330.496
964.076	298.57
951.542	321.185
938.979	323.018
926.387	296.481
913.765	339.512
901.113	374.64
888.431	381.441
875.72	408.639
862.979	410.226
850.207	452.475
837.406	365.185
824.574	354.204
811.712	310.459
798.819	322.316
785.896	354.212
772.943	350.867
759.958	340.035
746.943	346.712
733.897	373.261
720.819	354.997
707.711	354.153
694.571	400.253
681.4	369.721
668.198	390.97
654.963	358.147
641.698	381.763
628.4	405.263
615.07	409.164
601.709	405.753
588.315	429.018
574.889	437.66
561.431	455.906
547.94	437.964
534.417	415.303
520.861	416.697
507.273	465.861
493.651	428.987
479.996	458.857
466.309	457.746
452.588	437.709
438.834	479.132
425.046	515.641
411.225	528.481
397.37	524.852
383.481	560.972
369.558	631.887
355.601	569.869
341.61	563.837
327.585	562.458
313.526	625.733
299.431	672.57
285.303	634.157
271.139	680.733
256.941	706.497
242.708	720.724
228.439	805.406
214.135	880.585
199.796	860.3
185.422	871.725
171.011	925.889
156.565	961.8
142.084	981.833
127.566	1138.16
113.012	1320.47
100.669	1173.01