File: Spicy-Raman/model_train_and_validate/Raman_Data/polyethylene/20191004 Set3Sample3_6 5_.txt
3201.26	29.479
3193.54	42.0366
3185.8	29.3678
3178.05	58.6203
3170.28	58.505
3162.49	45.8778
3154.69	45.7875
3146.87	41.5431
3139.04	-4.14612
3131.19	53.7933
3123.33	41.2978
3115.45	57.7028
3107.56	16.454
3099.65	28.7375
3091.73	36.8751
3083.79	44.9804
3075.83	53.0534
3067.86	28.5106
3059.87	44.7136
3051.87	52.7385
3043.85	48.585
3035.81	64.6514
3027.76	12.098
3019.69	60.3698
3011.61	60.2497
3003.51	48.1038
2995.39	68.0112
2987.26	99.817
2979.11	67.7401
2970.94	83.5119
2962.76	111.127
2954.57	158.435
2946.35	185.789
2938.12	287.988
2929.87	291.348
2921.61	271.118
2913.33	286.26
2905.03	383.523
2896.72	394.469
2888.39	456.041
2880.04	552.373
2871.68	419.269
2863.3	542.402
2854.9	444.647
2846.48	567.229
2838.05	204.098
2829.6	138.353
2821.14	88.2136
2812.66	91.8629
2804.15	64.9379
2795.64	64.8064
2787.1	72.284
2778.55	41.7638
2769.98	79.5691
2761.39	98.3142
2752.79	56.6045
2744.17	75.3192
2735.53	93.9575
2726.87	131.273
2718.2	74.8602
2709.5	74.7076
2700.79	85.7386
2692.07	74.4031
2683.32	63.1134
2674.56	44.4596
2665.78	66.553
2656.98	51.6575
2648.16	84.6921
2639.32	84.5185
2630.47	73.3436
2621.6	51.2351
2612.71	65.7384
2603.8	76.5372
2594.87	50.9199
2585.92	79.8522
2576.96	90.5542
2567.98	46.9911
2558.98	32.4652
2549.96	35.998
2540.92	86.2168
2531.86	71.6988
2522.79	75.128
2513.69	42.8414
2504.58	74.8172
2495.45	95.9941
2486.29	39.0276
2477.12	84.9743
2467.93	74.198
2458.73	59.9402
2449.5	84.4453
2440.25	91.292
2430.98	87.5978
2421.7	62.9389
2412.39	90.7221
2403.07	66.1584
2393.72	55.5959
2384.36	79.752
2374.98	48.4431
2365.57	89.7774
2356.15	99.9264
2346.71	55.0162
2337.25	89.2136
2327.76	78.7539
2318.26	126.425
2308.74	129.568
2299.2	74.8554
2289.63	84.8837
2280.05	115.198
2270.45	71.0018
2260.82	97.8431
2251.18	97.6363
2241.52	104.149
2231.83	113.986
2222.13	76.945
2212.4	123.519
2202.65	129.919
2192.89	136.292
2183.1	109.465
2173.29	66.2014
2163.46	122.212
2153.61	98.8798
2143.74	131.559
2133.84	121.432
2123.93	127.723
2114	127.45
2104.04	117.395
2094.06	113.889
2084.06	136.375
2074.04	116.642
2064	119.625
2053.93	132.273
2043.85	131.989
2033.74	144.554
2023.61	131.422
2013.46	150.33
2003.29	162.772
1993.09	162.421
1982.88	171.604
1972.64	149.037
1962.38	193.012
1952.09	176.808
1941.79	207.93
1931.46	226.341
1921.11	178.798
1910.74	256.66
1900.34	246.733
1889.92	215.032
1879.48	227.003
1869.02	263.743
1858.53	284.841
1848.02	262.594
1837.49	289.764
1826.94	304.511
1816.36	279.292
1805.75	306.242
1795.13	311.683
1784.48	298.804
1773.81	319.445
1763.11	412.848
1752.4	402.854
1741.65	353.611
1730.89	401.083
1720.1	382.146
1709.28	441.351
1698.45	419.407
1687.58	427.448
1676.7	521.944
1665.79	541.621
1654.85	513.698
1643.9	494.783
1632.91	552.81
1621.91	460.144
1610.88	488.552
1599.82	408.179
1588.74	421.921
1577.63	458.987
1566.5	536.722
1555.35	480.225
1544.17	496.577
1532.96	573.699
1521.73	555.069
1510.48	565.365
1499.2	581.366
1487.89	623.136
1476.56	679.041
1465.2	1077.74
1453.82	1078.16
1442.41	1266.41
1430.98	973.934
1419.52	915.077
1408.03	788.639
1396.52	651.485
1384.98	706.29
1373.42	842.261
1361.83	773.126
1350.21	793.732
1338.57	772.412
1326.9	806.827
1315.2	849.407
1303.48	1038.57
1291.73	1014.1
1279.96	771.939
1268.15	627.145
1256.32	551.616
1244.47	585.951
1232.58	519.047
1220.67	504.231
1208.73	484.041
1196.77	455.8
1184.77	519.719
1172.75	523.926
1160.7	476.916
1148.62	508.078
1136.52	598.097
1124.39	741.215
1112.23	563.305
1100.04	716.488
1087.82	531.474
1075.57	527.593
1063.3	1116.22
1051	514.595
1038.67	466.01
1026.31	449.167
1013.92	390.47
1001.5	436.622
989.056	383.437
976.581	403.362
964.076	433.576
951.542	437.744
938.979	397.958
926.387	381.558
913.765	486.119
901.113	587.621
888.431	540.162
875.72	469.935
862.979	491.762
850.207	449.933
837.406	436.193
824.574	407.334
811.712	396.277
798.819	418.004
785.896	419.527
772.943	375.929
759.958	435.045
746.943	421.541
733.897	408.099
720.819	454.297
707.711	406.161
694.571	417.548
681.4	421.482
668.198	452.443
654.963	436.645
641.698	408.682
628.4	393.056
615.07	414.035
601.709	488.362
588.315	477.495
574.889	517.454
561.431	458.318
547.94	476.466
534.417	508.927
520.861	490.936
507.273	532.754
493.651	526.7
479.996	496.897
466.309	509.924
452.588	565.473
438.834	604.226
425.046	572.15
411.225	605.991
397.37	632.634
383.481	708.227
369.558	694.843
355.601	674.539
341.61	728.579
327.585	733.742
313.526	761.962
299.431	741.669
285.303	778.911
271.139	889.308
256.941	818.53
242.708	905.467
228.439	905.512
214.135	978.175
199.796	1039.15
185.422	1086.27
171.011	1261.55
156.565	1307.87
142.084	1336.01
127.566	1493.69
113.012	1670.66
100.669	1457.91