File: Spicy-Raman/model_train_and_validate/Raman_Data/polyethylene/20191004 Set3Sample3_11 5_.txt
3201.26	16.8451
3193.54	58.8512
3185.8	50.3449
3178.05	54.4331
3170.28	54.3261
3162.49	12.5121
3154.69	12.4875
3146.87	24.9258
3139.04	12.4384
3131.19	57.9313
3123.33	74.3361
3115.45	8.24326
3107.56	53.4754
3099.65	24.6321
3091.73	49.1669
3083.79	36.8022
3075.83	32.6483
3067.86	48.8754
3059.87	48.7784
3051.87	24.3408
3043.85	40.4875
3035.81	52.5292
3027.76	36.2941
3019.69	20.1233
3011.61	12.0499
3003.51	36.0778
2995.39	20.0033
2987.26	39.9268
2979.11	31.8777
2970.94	27.8373
2962.76	47.6257
2954.57	43.5697
2946.35	106.73
2938.12	55.2306
2929.87	114.177
2921.61	82.5142
2913.33	117.641
2905.03	152.626
2896.72	101.547
2888.39	93.5469
2880.04	147.818
2871.68	108.699
2863.3	182.092
2854.9	146.927
2846.48	104.185
2838.05	88.571
2829.6	57.6471
2821.14	23.0122
2812.66	30.621
2804.15	34.3789
2795.64	64.8064
2787.1	11.4133
2778.55	53.1539
2769.98	34.101
2761.39	37.8131
2752.79	41.51
2744.17	52.7235
2735.53	37.583
2726.87	45.0078
2718.2	63.6312
2709.5	63.5015
2700.79	59.6442
2692.07	22.3209
2683.32	44.5507
2674.56	37.0497
2665.78	66.553
2656.98	36.8982
2648.16	33.1404
2639.32	14.6989
2630.47	40.339
2621.6	51.2351
2612.71	25.5649
2603.8	47.3802
2594.87	50.9199
2585.92	32.6668
2576.96	61.5769
2567.98	54.2206
2558.98	61.3232
2549.96	25.1986
2540.92	39.516
2531.86	17.9247
2522.79	60.8179
2513.69	35.7012
2504.58	14.2509
2495.45	46.2194
2486.29	42.5755
2477.12	42.4871
2467.93	38.8656
2458.73	35.2589
2449.5	59.8154
2440.25	49.1572
2430.98	66.5744
2421.7	69.9321
2412.39	45.361
2403.07	59.1944
2393.72	48.6465
2384.36	69.3496
2374.98	62.284
2365.57	55.2476
2356.15	37.9031
2346.71	51.5777
2337.25	48.0381
2327.76	58.2094
2318.26	44.4195
2308.74	37.5067
2299.2	61.2453
2289.63	57.7209
2280.05	57.5992
2270.45	57.4777
2260.82	60.7302
2251.18	57.2351
2241.52	73.9122
2231.83	63.6982
2222.13	90.3267
2212.4	90.1353
2202.65	56.6314
2192.89	73.1321
2183.1	76.2939
2173.29	66.2014
2163.46	89.1817
2153.61	56.0319
2143.74	82.2242
2133.84	88.6127
2123.93	85.1486
2114	98.0385
2104.04	68.4802
2094.06	87.8576
2084.06	61.6933
2074.04	103.682
2064	106.693
2053.93	90.3328
2043.85	90.1387
2033.74	109.219
2023.61	102.573
2013.46	105.551
2003.29	111.706
1993.09	85.9877
1982.88	111.225
1972.64	123.669
1962.38	117.073
1952.09	145.235
1941.79	132.319
1931.46	119.458
1921.11	194.482
1910.74	178.41
1900.34	165.53
1889.92	208.8
1879.48	152.372
1869.02	220.303
1858.53	213.631
1848.02	244.058
1837.49	231.195
1826.94	221.462
1816.36	239.393
1805.75	241.931
1795.13	265.847
1784.48	225.627
1773.81	273.81
1763.11	333.921
1752.4	272.608
1741.65	284.098
1730.89	280.457
1720.1	315.947
1709.28	276.22
1698.45	335.525
1687.58	424.459
1676.7	378.782
1665.79	369.017
1654.85	383.046
1643.9	423.676
1632.91	372.481
1621.91	362.806
1610.88	388.487
1599.82	352.385
1588.74	410.201
1577.63	374.206
1566.5	393.79
1555.35	424.927
1544.17	438.498
1532.96	434.62
1521.73	450.994
1510.48	435.562
1499.2	474.878
1487.89	468.07
1476.56	475.615
1465.2	600.33
1453.82	604.685
1442.41	734.234
1430.98	573.57
1419.52	555.279
1408.03	508.799
1396.52	558.415
1384.98	590.92
1373.42	598.006
1361.83	649.874
1350.21	648.401
1338.57	621.834
1326.9	664.937
1315.2	646.771
1303.48	628.682
1291.73	591.329
1279.96	570.683
1268.15	489.613
1256.32	450.075
1244.47	443.57
1232.58	371.529
1220.67	414.287
1208.73	364.39
1196.77	355.416
1184.77	365.427
1172.75	340.282
1160.7	347.583
1148.62	354.848
1136.52	359.395
1124.39	369.27
1112.23	325.702
1100.04	348.922
1087.82	321.542
1075.57	294.285
1063.3	380.891
1051	290.284
1038.67	279.079
1026.31	239.03
1013.92	248.957
1001.5	253.607
989.056	253.016
976.581	242.017
964.076	241.452
951.542	246.069
938.979	211.9
926.387	244.919
913.765	277.782
901.113	264.301
888.431	286.721
875.72	301.371
862.979	346.527
850.207	315.207
837.406	301.785
824.574	258.063
811.712	275.122
798.819	279.508
785.896	263.775
772.943	210.52
759.958	255.026
746.943	264.399
733.897	256.306
720.819	245.767
707.711	279.855
694.571	303.896
681.4	285.918
668.198	277.859
654.963	252.665
641.698	283.875
628.4	332.023
615.07	284.953
601.709	330.434
588.315	339.336
574.889	302.251
561.431	347.357
547.94	346.521
534.417	336.084
520.861	359.222
507.273	332.075
493.651	326.507
479.996	373.267
466.309	343.903
452.588	376.193
438.834	380.001
425.046	426.169
411.225	415.738
397.37	414.727
383.481	479.164
369.558	433.694
355.601	481.481
341.61	429.258
327.585	486.075
313.526	480.267
299.431	479.091
285.303	503.19
271.139	543.211
256.941	521.299
242.708	586.159
228.439	623.393
214.135	603.7
199.796	704.088
185.422	618.79
171.011	678.084
156.565	694.383
142.084	744.22
127.566	834.053
113.012	979.196
100.669	821.329