File: Spicy-Raman/model_train_and_validate/Raman_Data/polyethylene/Set5Sample2_1 - 5_.txt
3201.19	21.056
3193.47	50.4429
3185.73	-8.39065
3177.97	20.9354
3170.2	25.0731
3162.42	-4.17063
3154.61	29.137
3146.8	37.3881
3138.97	29.0223
3131.12	20.6893
3123.26	8.25941
3115.38	49.4586
3107.48	45.2475
3099.58	16.4211
3091.65	20.4858
3083.71	4.08905
3075.75	16.3238
3067.78	32.583
3059.79	28.4536
3051.79	36.5106
3043.77	36.4381
3035.73	-4.04063
3027.68	32.2608
3019.61	36.2212
3011.53	32.1326
3003.43	56.12
2995.31	52.0076
2987.18	59.8891
2979.03	39.8464
2970.87	83.5103
2962.68	71.4373
2954.49	106.942
2946.27	75.1047
2938.04	106.514
2929.79	94.4895
2921.53	102.158
2913.25	113.717
2904.95	160.45
2896.64	117.167
2888.31	155.908
2879.96	128.366
2871.6	112.579
2863.22	120.101
2854.82	119.859
2846.4	115.759
2837.97	111.674
2829.52	80.7044
2821.06	42.1883
2812.57	30.6204
2804.07	38.198
2795.56	41.9328
2787.02	34.2391
2778.47	60.7461
2769.9	53.045
2761.31	22.6874
2752.71	52.8298
2744.09	45.1907
2735.45	41.3405
2726.79	45.0069
2718.11	52.4011
2709.42	41.0884
2700.71	55.9154
2691.98	40.9209
2683.24	48.2623
2674.47	55.5734
2665.69	29.5785
2656.89	81.1745
2648.07	69.9616
2639.24	40.4211
2630.38	51.3395
2621.51	21.9575
2612.62	43.8248
2603.71	40.0901
2594.78	54.5559
2585.84	50.814
2576.87	61.5757
2567.89	57.8341
2558.89	46.8933
2549.87	53.996
2540.83	50.2921
2531.77	46.6033
2522.7	60.8167
2513.6	78.541
2504.49	46.3145
2495.36	85.3264
2486.21	74.5057
2477.04	70.8105
2467.85	52.9975
2458.64	63.4648
2449.41	80.9252
2440.16	84.2678
2430.89	84.0922
2421.61	87.4134
2412.3	59.3171
2402.98	76.603
2393.63	69.4936
2384.27	55.4786
2374.89	93.4242
2365.48	62.1523
2356.06	106.816
2346.62	89.3995
2337.15	68.6245
2327.67	109.568
2318.17	99.0877
2308.65	109.108
2299.1	115.683
2289.54	118.835
2279.96	98.2555
2270.36	98.0482
2260.73	114.71
2251.09	90.9009
2241.42	104.147
2231.74	93.8691
2222.03	123.779
2212.31	70.1038
2202.56	103.267
2192.79	106.372
2183	106.146
2173.2	152.26
2163.37	122.21
2153.51	108.766
2143.64	124.978
2133.75	147.685
2123.84	134.27
2113.9	130.715
2103.94	153.262
2093.97	146.426
2083.97	146.113
2073.94	142.56
2063.9	122.856
2053.84	170.984
2043.75	189.931
2033.64	154.188
2023.52	157.062
2013.36	140.731
2003.19	143.62
1993	156.049
1982.78	190.667
1972.54	190.256
1962.28	186.68
1952	202.062
1941.69	192.174
1931.36	242.054
1921.01	207.025
1910.64	222.225
1900.24	237.358
1889.82	208.795
1879.38	230.108
1868.92	207.887
1858.43	263.163
1847.92	262.589
1837.39	274.346
1826.83	279.898
1816.25	297.7
1805.65	272.55
1795.03	296.398
1784.38	289.651
1773.71	322.48
1763.01	324.808
1752.29	354.383
1741.55	335.47
1730.78	322.669
1719.99	355.057
1709.18	363.281
1698.34	407.415
1687.48	403.526
1676.59	468.249
1665.68	473.165
1654.75	495.871
1643.79	479.959
1632.81	410.903
1621.8	356.899
1610.77	453.226
1599.71	402.298
1588.63	436.562
1577.53	447.283
1566.4	440.452
1555.24	451.111
1544.06	467.527
1532.86	437.508
1521.62	479.894
1510.37	513.433
1499.09	477.746
1487.78	508.262
1476.45	561.558
1465.09	648.914
1453.71	710.204
1442.3	793.98
1430.87	641.703
1419.41	657.255
1407.92	593.586
1396.41	600.707
1384.87	664.067
1373.31	724.329
1361.72	675.07
1350.1	718.256
1338.46	669.224
1326.79	600.934
1315.09	693.945
1303.37	708.983
1291.62	983.685
1279.84	923.55
1268.04	629.882
1256.21	620.212
1244.35	550.344
1232.47	535.427
1220.56	526.025
1208.62	532.977
1196.65	496.486
1184.66	511.587
1172.63	545.52
1160.59	614.319
1148.51	572.583
1136.4	640.996
1124.27	663.6
1112.11	622.025
1099.92	591.29
1087.7	605.867
1075.46	620.372
1063.18	685.06
1050.88	519.861
1038.55	576.576
1026.19	499.064
1013.8	497.903
1001.38	530.733
988.937	537.322
976.461	562.092
963.956	506.26
951.422	512.848
938.859	540.074
926.266	507.874
913.644	552.98
900.991	590.173
888.31	624.628
875.598	674.239
862.856	713.421
850.085	826.13
837.283	704.994
824.451	564.183
811.589	509.848
798.696	523.752
785.773	542.61
772.819	513.758
759.834	492.54
746.818	516.314
733.772	567.344
720.694	575.926
707.585	614.181
694.445	590.483
681.274	606.329
668.071	570.459
654.837	657.405
641.57	660.728
628.272	627.411
614.943	686.795
601.581	643.845
588.187	647.148
574.761	691.535
561.302	656.103
547.811	705.057
534.288	643.346
520.731	677.716
507.142	699.97
493.52	622.016
479.866	630.022
466.178	675.931
452.456	716.88
438.702	696.26
424.914	722.823
411.092	725.764
397.237	784.917
383.348	717.56
369.425	788.092
355.468	755.931
341.476	754.085
327.451	768.443
313.391	759.636
299.296	750.865
285.167	820.25
271.004	859.491
256.805	871.097
242.571	1005.8
228.302	978.295
213.998	1132.48
199.659	1150.06
185.284	1059.14
170.873	1135.37
156.427	1256.15
141.945	1481.68
127.427	1802.23
112.873	2223.77
100.529	2014.32