File: Spicy-Raman/model_train_and_validate/Raman_Data/polyethylene/Set5Sample2_3 - 5_.txt
3201.19	25.2672
3193.47	21.0179
3185.73	37.7579
3177.97	16.7483
3170.2	37.6097
3162.42	25.0238
3154.61	33.2994
3146.8	49.8508
3138.97	41.4604
3131.12	41.3787
3123.26	8.25941
3115.38	16.4862
3107.48	53.4743
3099.58	57.4739
3091.65	32.7773
3083.71	40.8905
3075.75	44.8905
3067.78	36.6558
3059.79	24.3888
3051.79	52.7375
3043.77	56.6815
3035.73	36.3657
3027.68	80.652
3019.61	64.3933
3011.53	52.2154
3003.43	56.12
2995.31	88.0128
2987.18	87.8373
2979.03	107.585
2970.87	103.394
2962.68	138.906
2954.49	126.746
2946.27	166.021
2938.04	149.909
2929.79	216.538
2921.53	165.025
2913.25	219.592
2904.95	242.632
2896.64	242.145
2888.31	288.431
2879.96	268.401
2871.6	221.277
2863.22	209.208
2854.82	216.52
2846.4	208.366
2837.97	142.481
2829.52	119.135
2821.06	99.7178
2812.57	118.654
2804.07	99.3149
2795.56	76.2414
2787.02	114.13
2778.47	121.492
2769.9	136.402
2761.31	128.562
2752.71	105.66
2744.09	112.977
2735.45	157.846
2726.79	112.517
2718.11	145.975
2709.42	104.589
2700.71	134.197
2691.98	163.684
2683.24	155.924
2674.47	137.081
2665.69	166.379
2656.89	147.59
2648.07	158.334
2639.24	150.66
2630.38	187.022
2621.51	153.702
2612.62	149.735
2603.71	153.071
2594.78	145.482
2585.84	177.849
2576.87	195.593
2567.89	202.419
2558.89	216.431
2549.87	201.585
2540.83	190.392
2531.77	215.092
2522.7	189.605
2513.6	217.773
2504.49	228.01
2495.36	223.982
2486.21	237.709
2477.04	237.215
2467.85	233.189
2458.64	215.075
2449.41	246.294
2440.16	224.714
2430.89	259.284
2421.61	258.744
2412.3	272.161
2402.98	250.701
2393.63	284.924
2384.27	260.056
2374.89	294.113
2365.48	272.78
2356.06	296.328
2346.62	288.829
2337.15	332.829
2327.67	332.129
2318.17	362.183
2308.65	337.553
2299.1	330.038
2289.54	342.923
2279.96	332.036
2270.36	331.335
2260.73	381.243
2251.09	390.537
2241.42	346.037
2231.74	439.173
2222.03	347.918
2212.31	433.976
2202.56	429.724
2192.79	412.191
2183	417.949
2173.2	423.681
2163.37	422.779
2153.51	441.654
2143.64	457.157
2133.75	492.283
2123.84	484.682
2113.9	499.986
2103.94	502.178
2093.97	491.342
2083.97	506.524
2073.94	508.679
2063.9	552.851
2053.84	535.533
2043.75	531.164
2033.64	581.418
2023.52	548.114
2013.36	623.696
2003.19	625.543
1993	652.856
1982.78	651.447
1972.54	684.92
1962.28	670.783
1952	726.162
1941.69	658.431
1931.36	713.589
1921.01	712.041
1910.64	776.224
1900.24	812.016
1889.82	779.087
1879.38	758.734
1868.92	874.988
1858.43	863.793
1847.92	849.552
1837.39	844.615
1826.83	925.816
1816.25	902.308
1805.65	949.331
1795.03	993.087
1784.38	926.882
1773.71	976.567
1763.01	922.818
1752.29	1048
1741.55	1103.12
1730.78	1064.51
1719.99	1071.19
1709.18	1065.83
1698.34	1201.28
1687.48	1219.55
1676.59	1210.89
1665.68	1249.87
1654.75	1327.27
1643.79	1297.67
1632.81	1285.92
1621.8	1286.02
1610.77	1412.65
1599.71	1394.83
1588.63	1333.13
1577.53	1309.69
1566.4	1353.44
1555.24	1362.07
1544.06	1451.95
1532.86	1460.29
1521.62	1326.93
1510.37	1422.04
1499.09	1433.24
1487.78	1467.35
1476.45	1661.75
1465.09	1786.66
1453.71	1839.69
1442.3	1957.91
1430.87	1695.12
1419.41	1609.14
1407.92	1594.2
1396.41	1613.17
1384.87	1772.72
1373.31	1911.89
1361.72	1792.72
1350.1	1880.88
1338.46	1985.36
1326.79	1825.06
1315.09	1931.94
1303.37	1963.55
1291.62	2019.87
1279.84	1927.05
1268.04	1776.87
1256.21	1833.19
1244.35	1719.48
1232.47	1753.8
1220.56	1714.35
1208.62	1680.51
1196.65	1673.94
1184.66	1781.08
1172.63	1712.18
1160.59	1708.24
1148.51	1793.02
1136.4	1906.9
1124.27	1824.9
1112.11	1834.04
1099.92	1978.96
1087.7	1865.43
1075.46	1877.02
1063.18	1970.54
1050.88	1781.25
1038.55	1885.06
1026.19	1770.36
1013.8	1789.83
1001.38	1762.14
988.937	1784.12
976.461	1756.54
963.956	1760.23
951.422	1784.61
938.859	1863.13
926.266	1830.41
913.644	1949.58
900.991	1896.25
888.31	1948.12
875.598	1925.67
862.856	2112.24
850.085	2142.85
837.283	2033.83
824.451	1963.26
811.589	1903.1
798.696	1966.59
785.773	1954.4
772.819	1982.36
759.834	1987.66
746.818	2112.65
733.772	2062.84
720.694	2105.11
707.585	2107.53
694.445	2065.46
681.274	2099.97
668.071	2163.81
654.837	2087.51
641.57	2124.12
628.272	2255.75
614.943	2245.48
601.581	2300.84
588.187	2331.67
574.761	2372.01
561.302	2438.68
547.811	2425.59
534.288	2458.16
520.731	2425.89
507.142	2463.03
493.52	2457.08
479.866	2451.14
466.178	2478.41
452.456	2628.56
438.702	2683.55
424.914	2573.44
411.092	2672.88
397.237	2696.83
383.348	2744.03
369.425	2723.35
355.468	2739.96
341.476	2788.95
327.451	2812.23
313.391	2754.55
299.296	2731.67
285.167	2805.39
271.004	2837.47
256.805	2940.24
242.571	2958.09
228.302	2943.98
213.998	3050.2
199.659	3246.43
185.284	3066.78
170.873	3158.31
156.427	3366.22
141.945	3465.47
127.427	3807.93
112.873	4043.83
100.529	3300.82