File: Spicy-Raman/model_train_and_validate/Raman_Data/polyethylene/Set5Sample2_2 - 5_.txt
3201.19	16.8448
3193.47	16.8143
3185.73	4.19533
3177.97	20.9354
3170.2	29.252
3162.42	41.7063
3154.61	0
3146.8	29.0796
3138.97	8.29209
3131.12	8.27574
3123.26	37.1673
3115.38	41.2155
3107.48	0
3099.58	45.1581
3091.65	20.4858
3083.71	16.3562
3075.75	-4.08096
3067.78	4.07287
3059.79	-4.06479
3051.79	4.05673
3043.77	4.04868
3035.73	16.1625
3027.68	20.163
3019.61	16.0983
3011.53	24.0994
3003.43	36.0771
2995.31	48.007
2987.18	27.9482
2979.03	103.601
2970.87	111.347
2962.68	91.2809
2954.49	71.2944
2946.27	122.539
2938.04	185.413
2929.79	173.231
2921.53	157.167
2913.25	180.379
2904.95	203.498
2896.64	206.995
2888.31	167.602
2879.96	256.732
2871.6	190.22
2863.22	232.454
2854.82	235.852
2846.4	223.8
2837.97	80.8676
2829.52	46.1168
2821.06	34.5177
2812.57	38.2755
2804.07	30.5584
2795.56	38.1207
2787.02	45.6522
2778.47	34.1697
2769.9	41.6783
2761.31	34.0312
2752.71	49.0563
2744.09	37.6589
2735.45	52.6152
2726.79	52.5081
2718.11	63.63
2709.42	59.765
2700.71	48.46
2691.98	29.7607
2683.24	37.1248
2674.47	62.9832
2665.69	36.9732
2656.89	33.2077
2648.07	44.1863
2639.24	18.3732
2630.38	62.3408
2621.51	21.9575
2612.62	43.8248
2603.71	54.6684
2594.78	7.27412
2585.84	36.2957
2576.87	18.1105
2567.89	39.761
2558.89	21.6431
2549.87	43.1968
2540.83	39.5152
2531.77	35.8487
2522.7	57.2392
2513.6	57.1208
2504.49	32.0639
2495.36	14.2211
2486.21	49.6705
2477.04	42.4863
2467.85	45.9312
2458.64	66.9906
2449.41	49.2588
2440.16	42.1339
2430.89	59.5653
2421.61	45.455
2412.3	62.8063
2402.98	59.1932
2393.63	52.1202
2384.27	48.5438
2374.89	48.4422
2365.48	48.3407
2356.06	48.2394
2346.62	48.1382
2337.15	51.4684
2327.67	41.0882
2318.17	61.5027
2308.65	54.5541
2299.1	40.8294
2289.54	57.7198
2279.96	30.4931
2270.36	84.5243
2260.73	94.4673
2251.09	57.2339
2241.42	67.1916
2231.74	83.8117
2222.03	76.9434
2212.31	56.7507
2202.56	76.6174
2192.79	69.8065
2183	79.6094
2173.2	46.3401
2163.37	52.8474
2153.51	72.5104
2143.64	72.3558
2133.75	62.3558
2123.84	62.2227
2113.9	81.6971
2103.94	61.957
2093.97	65.0784
2083.97	81.1738
2073.94	55.0799
2063.9	77.5931
2053.84	77.4265
2043.75	64.3835
2033.64	77.0941
2023.52	80.1336
2013.36	99.1517
2003.19	63.831
1993	121.017
1982.78	127.112
1972.54	85.615
1962.28	129.727
1952	135.761
1941.69	103.963
1931.36	135.173
1921.01	159.974
1910.64	134.587
1900.24	146.787
1889.82	134.003
1879.38	136.821
1868.92	170.654
1858.43	182.666
1847.92	151.375
1837.39	147.962
1826.83	178.396
1816.25	202.559
1805.65	143.931
1795.03	192.506
1784.38	228.672
1773.71	185.578
1763.01	230.705
1752.29	236.255
1741.55	229.691
1730.78	241.248
1719.99	225.672
1709.18	246.191
1698.34	245.647
1687.48	257.061
1676.59	342.985
1665.68	419.599
1654.75	359.284
1643.79	361.451
1632.81	313.351
1621.8	303.806
1610.77	294.302
1599.71	270.156
1588.63	275.415
1577.53	315.729
1566.4	271.272
1555.24	276.488
1544.06	316.525
1532.86	315.817
1521.62	306.438
1510.37	343.25
1499.09	328.091
1487.78	361.813
1476.45	424.033
1465.09	617.469
1453.71	661.716
1442.3	816.746
1430.87	616.149
1419.41	473.11
1407.92	432.47
1396.41	423.033
1384.87	506.492
1373.31	631.682
1361.72	602.241
1350.1	572.928
1338.46	552.11
1326.79	556.42
1315.09	591.241
1303.37	648.055
1291.62	804.08
1279.84	716.785
1268.04	473.099
1256.21	425.366
1244.35	432.609
1232.47	363.325
1220.56	367.945
1208.62	364.382
1196.65	344.556
1184.66	362.713
1172.63	421.292
1160.59	420.324
1148.51	438.174
1136.4	455.938
1124.27	527.134
1112.11	475.195
1099.92	444.799
1087.7	446.428
1075.46	487.814
1063.18	611
1050.88	427.5
1038.55	402.813
1026.19	351.971
1013.8	369.497
1001.38	371.251
988.937	378.212
976.461	340.898
963.956	332.314
951.422	341.899
938.859	338.515
926.266	371.238
913.644	414.092
900.991	418.253
888.31	468.471
875.598	487.802
862.856	537.614
850.085	589.729
837.283	484.366
824.451	427.565
811.589	302.88
798.696	319.791
785.773	278.841
772.819	305.749
759.834	287.523
746.818	359.175
733.772	360.811
720.694	312.787
707.585	401.199
694.445	382.949
681.274	347.53
668.071	349.16
654.837	385.122
641.57	418.461
628.272	458.962
614.943	416.461
601.581	432.47
588.187	404.771
574.761	427.978
561.302	455.895
547.811	397.046
534.288	408.092
520.731	431.056
507.142	430.016
493.52	400.378
479.866	439.827
466.178	474.337
452.456	499.213
438.702	533.406
424.914	437.932
411.092	556.654
397.237	515.468
383.348	521.225
369.425	498.969
355.468	474.492
341.476	533.66
327.451	541.614
313.391	591.084
299.296	550.481
285.167	611.166
271.004	616.542
256.805	690.476
242.571	768.603
228.302	853.164
213.998	887.373
199.659	878.391
185.284	873.963
170.873	975.427
156.427	1119.08
141.945	1297.87
127.427	1739.62
112.873	2179.16
100.529	2036.58