File: Spicy-Raman/model_train_and_validate/Raman_Data/polyethylene/Set7Sample6_1 - 5_.txt
3201.15	12.6335
3193.43	25.2212
3185.69	41.9529
3177.94	0
3170.17	4.17882
3162.38	20.853
3154.58	20.8119
3146.76	41.5419
3138.93	16.584
3131.08	12.4135
3123.22	16.5187
3115.34	24.7291
3107.45	24.6802
3099.54	16.421
3091.61	36.8741
3083.67	0
3075.72	24.4855
3067.74	36.6555
3059.76	32.5181
3051.75	20.2835
3043.73	16.1946
3035.7	8.08119
3027.64	24.1954
3019.58	28.1718
3011.49	32.1323
3003.39	48.1024
2995.28	8.00109
2987.14	43.9183
2978.99	67.7382
2970.83	59.6497
2962.65	67.4679
2954.45	63.3723
2946.23	55.3398
2938	71.0087
2929.76	66.9295
2921.49	66.7953
2913.21	50.9763
2904.92	39.1338
2896.6	74.205
2888.27	50.6698
2879.92	58.3476
2871.56	27.1741
2863.18	61.9871
2854.78	50.263
2846.37	30.8687
2837.93	46.2097
2829.48	23.0582
2821.02	34.5174
2812.53	38.2751
2804.03	0
2795.52	38.1203
2786.98	15.2172
2778.43	18.983
2769.86	30.3112
2761.27	26.4684
2752.67	18.8676
2744.05	18.8293
2735.41	18.791
2726.75	30.0044
2718.07	22.4574
2709.38	22.4117
2700.67	11.183
2691.94	29.7604
2683.2	14.8498
2674.43	-7.40972
2665.65	25.881
2656.85	7.37943
2648.03	22.0929
2639.2	25.7223
2630.34	22.0024
2621.47	14.6382
2612.58	21.9122
2603.67	25.5117
2594.74	36.3703
2585.8	10.8886
2576.83	14.4883
2567.85	25.3022
2558.85	32.4643
2549.83	21.5982
2540.79	35.9226
2531.73	14.3393
2522.66	-3.57742
2513.56	17.8501
2504.45	17.8131
2495.32	35.5523
2486.16	24.835
2476.99	17.7025
2467.8	42.3976
2458.59	10.5774
2449.37	52.7768
2440.12	31.6001
2430.85	38.5419
2421.57	34.965
2412.26	27.9137
2402.94	48.7469
2393.59	24.3225
2384.23	24.2716
2374.84	48.4417
2365.44	24.1701
2356.02	31.0107
2346.57	24.0689
2337.11	27.4495
2327.63	23.9679
2318.13	34.1678
2308.6	57.9631
2299.06	27.2193
2289.5	16.9762
2279.92	44.0452
2270.31	27.0475
2260.69	26.9904
2251.04	43.7667
2241.38	36.955
2231.69	46.9341
2221.99	26.7627
2212.26	26.7059
2202.52	29.9805
2192.75	39.8891
2182.96	19.9022
2173.15	49.6496
2163.32	29.7264
2153.47	26.3672
2143.6	42.7553
2133.7	36.1004
2123.79	29.4736
2113.85	35.9464
2103.9	29.3478
2093.92	35.7928
2083.92	55.1976
2073.9	32.3996
2063.86	45.2622
2053.79	35.4868
2043.71	25.7531
2033.6	44.9711
2023.47	67.3115
2013.32	35.1825
2003.15	22.3406
1992.95	47.7695
1982.73	47.6664
1972.49	69.7597
1962.23	63.2808
1951.95	56.8295
1941.64	59.8568
1931.31	88.0189
1920.96	90.9647
1910.59	81.3775
1900.19	74.9546
1889.78	84.1405
1879.33	83.9575
1868.87	102.391
1858.38	117.648
1847.87	111.213
1837.34	98.6402
1826.79	89.1974
1816.21	104.348
1805.6	116.369
1794.98	116.114
1784.33	112.81
1773.66	139.943
1762.96	142.671
1752.24	169.618
1741.5	181.333
1730.73	189.981
1719.94	126.375
1709.13	150.115
1698.29	158.77
1687.43	176.354
1676.54	229.648
1665.63	232.116
1654.7	249.418
1643.74	248.865
1632.76	218.752
1621.75	206.468
1610.72	211.896
1599.66	182.06
1588.58	181.655
1577.48	210.484
1566.35	230.433
1555.19	224.098
1544.01	223.598
1532.8	220.201
1521.57	202.363
1510.32	250.945
1499.04	250.383
1487.73	246.95
1476.4	246.395
1465.04	280.145
1453.66	313.742
1442.25	293.115
1430.82	315.17
1419.36	379.617
1407.87	310.923
1396.36	397.647
1384.82	444.583
1373.26	567.105
1361.66	490.191
1350.05	394.059
1338.4	418.261
1326.73	408.965
1315.04	419.138
1303.32	387.721
1291.57	627.231
1279.79	639.586
1267.99	349.32
1256.16	312.847
1244.3	301.18
1232.41	226.734
1220.5	209.863
1208.56	217.54
1196.6	168.207
1184.6	194.888
1172.58	216.045
1160.53	280.213
1148.45	311.826
1136.35	345.973
1124.22	406.719
1112.05	371.075
1099.86	303.632
1087.65	292.301
1075.4	246.555
1063.13	269.789
1050.82	274.441
1038.49	250.11
1026.13	218.01
1013.74	172.954
1001.33	214.382
988.88	166.933
976.404	192.566
963.899	186.925
951.365	157.997
938.802	144.707
926.209	172.727
913.586	231.478
900.934	256.594
888.252	212.474
875.54	283.484
862.799	374.542
850.027	439.75
837.225	296.703
824.393	184.686
811.53	138.818
798.637	115.828
785.714	115.555
772.76	100.244
759.775	105.007
746.759	134.689
733.712	161.741
720.635	153.91
707.526	217.933
694.386	200.12
681.214	172.531
668.011	169.661
654.777	179.067
641.51	254.5
628.212	266.098
614.882	253.283
601.52	221.092
588.126	235.104
574.7	234.539
561.241	284.63
547.75	255.069
534.226	177.638
520.67	227.499
507.081	246.062
493.459	216.869
479.804	192.571
466.115	203.963
452.394	264.982
438.639	269.06
424.851	240.153
411.029	277.149
397.174	288.19
383.285	238.405
369.361	265.803
355.404	225.614
341.413	243.625
327.387	333.297
313.327	288.612
299.232	269.479
285.103	307.877
270.939	350.669
256.74	411.537
242.507	533.683
228.238	571.045
213.933	578.715
199.594	622.564
185.219	553.278
170.808	653.281
156.362	757.279
141.879	1044.56
127.361	1489.17
112.807	1953.86
100.463	1811.76