File: Spicy-Raman/model_train_and_validate/Raman_Data/cellulose/20181203 NBay Control 7-9e_1.txt
3201.19	357.953
3193.46	290.047
3185.72	302.063
3177.97	401.96
3170.2	330.129
3162.41	392.04
3154.61	395.431
3146.8	336.493
3138.97	398.02
3131.12	355.857
3123.26	396.452
3115.38	436.885
3107.48	448.362
3099.57	422.844
3091.65	446.591
3083.71	388.46
3075.75	404.015
3067.78	496.89
3059.79	483.71
3051.79	462.467
3043.77	502.036
3035.73	529.323
3027.68	584.727
3019.61	651.982
3011.53	594.452
3003.43	609.303
2995.31	700.102
2987.18	646.802
2979.03	753.097
2970.86	791.36
2962.68	845.341
2954.49	891.181
2946.27	849.869
2938.04	974.407
2929.79	909.462
2921.53	895.851
2913.25	960.716
2904.95	1009.66
2896.64	1085.75
2888.31	1099.15
2879.96	995.808
2871.6	997.686
2863.22	1456.71
2854.82	1109.66
2846.4	1091.99
2837.97	1139.85
2829.52	1241.31
2821.06	1181.27
2812.57	1263.09
2804.07	1268.17
2795.55	1288.48
2787.02	1331.52
2778.47	1325.03
2769.9	1409.48
2761.31	1327.22
2752.71	1305.65
2744.08	1487.53
2735.44	1507.05
2726.79	1609
2718.11	1545.83
2709.42	1647.27
2700.71	1670.01
2691.98	1852.6
2683.24	1741.15
2674.47	1948.78
2665.69	1870.84
2656.89	2003.53
2648.07	1826.37
2639.24	2131.29
2630.38	2053.58
2621.51	2155.49
2612.62	2333.67
2603.71	2314.29
2594.78	2225.88
2585.84	2319.3
2576.87	2470.27
2567.89	2483.25
2558.89	2600.77
2549.87	2692.6
2540.83	2611.6
2531.77	2688.65
2522.7	2590.08
2513.6	2773.93
2504.49	2924.94
2495.36	2936.65
2486.2	3019.25
2477.03	3133.36
2467.84	3232.85
2458.64	3349.53
2449.41	3511.45
2440.16	3381.25
2430.89	3531.87
2421.61	3507.03
2412.3	3688.13
2402.98	3746.58
2393.63	3964.61
2384.27	3914.71
2374.89	3906.51
2365.48	3967.39
2356.06	4183.04
2346.62	4218.97
2337.15	4388.54
2327.67	4372.47
2318.17	4469.2
2308.65	4555.26
2299.1	4824.67
2289.54	4766.97
2279.96	4841.63
2270.35	5003.84
2260.73	4942.66
2251.09	5171.25
2241.42	5103.2
2231.74	5296.9
2222.03	5583.42
2212.31	5551.55
2202.56	5876.23
2192.79	5840.48
2183	5980.66
2173.19	6080.48
2163.36	6110.48
2153.51	6222.71
2143.64	6285.09
2133.75	6619.56
2123.83	6536.66
2113.9	6686.09
2103.94	6805.49
2093.96	6842.99
2083.96	6854.32
2073.94	7218.71
2063.9	7235.55
2053.84	7087.75
2043.75	7317.19
2033.64	7410.67
2023.51	7689.62
2013.36	7900.15
2003.19	7876.74
1993	8028.54
1982.78	8227.3
1972.54	8441.01
1962.28	8543
1951.99	8625.54
1941.69	8720.28
1931.36	9050.32
1921.01	8867.58
1910.64	9186.37
1900.24	9500.59
1889.82	9514.21
1879.38	9652.1
1868.92	9935.15
1858.43	9975.42
1847.92	10129.7
1837.39	10326.5
1826.83	10476.2
1816.25	10812.4
1805.65	10595.8
1795.03	10869
1784.38	10973.2
1773.71	11128.6
1763.01	11280.2
1752.29	11622
1741.55	11448.3
1730.78	11794
1719.99	11861.3
1709.18	11988.3
1698.34	12330.3
1687.48	12117.7
1676.59	12794.8
1665.68	12701.1
1654.75	13112.4
1643.79	13370.7
1632.81	13299.7
1621.8	13529.7
1610.77	13467.3
1599.71	13825
1588.63	13800
1577.53	14231.2
1566.4	14400.8
1555.24	14432.7
1544.06	14592.1
1532.85	14600
1521.62	14908.5
1510.37	15169.3
1499.09	15354.1
1487.78	15336.9
1476.45	15417.1
1465.09	15479.6
1453.71	15906.9
1442.3	15865.4
1430.87	16170.4
1419.41	16306.7
1407.92	16541.3
1396.41	16633.7
1384.87	16967.5
1373.31	17437.2
1361.72	17616.3
1350.1	17500.9
1338.46	17793
1326.79	17585.7
1315.09	17512.4
1303.37	17375.6
1291.62	18212
1279.84	18222.9
1268.04	17433.2
1256.21	17829.7
1244.35	17690.4
1232.47	18051.5
1220.56	17868.5
1208.62	17990.7
1196.65	17767.7
1184.66	18268.3
1172.63	18320.8
1160.58	18300.3
1148.51	18803.8
1136.4	18902.7
1124.27	19734.1
1112.11	19290.8
1099.92	20050.6
1087.7	19783.7
1075.46	19247.4
1063.18	19713.3
1050.88	19496.1
1038.55	19350.8
1026.19	19350.5
1013.8	19245.3
1001.38	19678.9
988.936	19622.7
976.46	19714.9
963.955	20037.5
951.421	19887.1
938.858	19954.3
926.265	19943.7
913.643	20246.8
900.991	20371.3
888.309	20712.6
875.597	21123.6
862.856	21466.3
850.084	21581
837.282	21246.2
824.45	21297.3
811.588	21262.2
798.695	21113.7
785.772	21606.4
772.818	21673.1
759.833	21979.3
746.817	21872.3
733.771	21999.5
720.693	21989.5
707.585	22321
694.445	22912.7
681.273	22599.3
668.07	22739.7
654.836	22847.3
641.57	22990.9
628.272	23243.5
614.942	23472.8
601.58	23241.6
588.186	23493.7
574.76	23505
561.301	23590.8
547.81	23844.4
534.287	23820.6
520.731	24227.7
507.142	24045
493.52	23875
479.865	23929
466.177	23977.8
452.456	24752.5
438.701	24940.3
424.913	24926.8
411.091	24680.7
397.236	24533.9
383.347	25472.2
369.424	25002.1
355.467	24996.9
341.476	24952.1
327.45	24990.6
313.39	25167.3
299.296	24898.3
285.167	24625.9
271.003	24739.6
256.804	25117.8
242.571	24679.7
228.302	24891.9
213.998	24914.5
199.658	25038.7
185.283	24629.1
170.873	24617.7
156.427	24345.6
141.944	24845.6
127.426	25206.6
112.872	25119.5
100.529	20570.6