File: Spicy-Raman/model_train_and_validate/Raman_Data/cellulose/20180911 NBay_Control 4a_1.txt
3201.2	210.561
3193.47	281.64
3185.73	327.236
3177.98	238.664
3170.21	217.301
3162.42	204.362
3154.62	253.909
3146.81	240.946
3138.98	219.741
3131.13	273.1
3123.27	256.042
3115.39	313.239
3107.49	304.393
3099.58	324.318
3091.66	376.94
3083.72	314.858
3075.76	265.263
3067.79	289.174
3059.8	312.99
3051.8	288.028
3043.78	372.479
3035.74	436.389
3027.69	399.229
3019.62	374.287
3011.54	341.409
3003.44	400.858
2995.32	396.059
2987.19	495.084
2979.04	414.403
2970.88	528.9
2962.69	579.437
2954.5	550.553
2946.28	588.98
2938.05	639.086
2929.8	681.114
2921.54	730.828
2913.26	843.08
2904.96	868.781
2896.65	1015.45
2888.32	954.942
2879.97	851.884
2871.61	939.457
2863.23	1646.55
2854.83	866.081
2846.41	902.921
2837.98	781.722
2829.53	741.713
2821.07	801.58
2812.58	750.201
2804.08	832.719
2795.57	865.342
2787.03	806.523
2778.48	884.618
2769.91	909.346
2761.32	865.906
2752.72	962.26
2744.1	1001.73
2735.46	1041.03
2726.8	1080.17
2718.12	1025.57
2709.43	1060.83
2700.72	1088.49
2691.99	1138.35
2683.25	1154.59
2674.48	1144.82
2665.7	1234.91
2656.9	1228.69
2648.08	1288.77
2639.25	1260.41
2630.39	1283.49
2621.52	1332.09
2612.63	1402.4
2603.72	1399.51
2594.79	1451.19
2585.85	1346.58
2576.88	1347.42
2567.9	1575.98
2558.9	1554.7
2549.88	1544.29
2540.84	1670.42
2531.79	1634.7
2522.71	1627.75
2513.61	1745.76
2504.5	1774.21
2495.37	1827.41
2486.22	1883.93
2477.05	1957.91
2467.86	1918.52
2458.65	2016.78
2449.42	1991.47
2440.17	2103.19
2430.91	2088.3
2421.62	2094.43
2412.31	2281.97
2402.99	2308.54
2393.65	2282.87
2384.28	2402.92
2374.9	2494.78
2365.49	2441.21
2356.07	2611.82
2346.63	2654.48
2337.17	2642.05
2327.68	2588.56
2318.18	2764.21
2308.66	2812.95
2299.12	2895.49
2289.55	3001.44
2279.97	3035.76
2270.37	2911.02
2260.74	3012.84
2251.1	3090.64
2241.43	3215.13
2231.75	3221.73
2222.04	3198.18
2212.32	3428.42
2202.57	3461.12
2192.8	3633.27
2183.02	3632.19
2173.21	3611.22
2163.38	3811.63
2153.53	3793.62
2143.65	3864.47
2133.76	3859.51
2123.85	3933.14
2113.91	4225.39
2103.96	4063.09
2093.98	4200.82
2083.98	4227.54
2073.96	4370.76
2063.91	4364.62
2053.85	4474.62
2043.76	4500.42
2033.66	4805.55
2023.53	4708.66
2013.38	4800.87
2003.2	4927.76
1993.01	5114.59
1982.79	5068.59
1972.55	5193.99
1962.29	5306.16
1952.01	5439.92
1941.7	5513.2
1931.37	5551.55
1921.02	5614.79
1910.65	5746.58
1900.25	5755.96
1889.84	6023.92
1879.39	5830.45
1868.93	6155.96
1858.44	6483.11
1847.93	6252.72
1837.4	6516.5
1826.85	6600.69
1816.27	6620.02
1805.67	6991.39
1795.04	6985.24
1784.39	6927.24
1773.72	7094.58
1763.02	7595.06
1752.31	7269.42
1741.56	7392.45
1730.8	7421.42
1720.01	7525.43
1709.19	7716
1698.35	7785.85
1687.49	7909.14
1676.61	8061.66
1665.7	8216.42
1654.76	8432.81
1643.8	8233.39
1632.82	8708.81
1621.81	8539.05
1610.78	8711.38
1599.73	8891.69
1588.65	9059.42
1577.54	9033.39
1566.41	9310.78
1555.25	9266.73
1544.07	9501.58
1532.87	9413.7
1521.64	9592.12
1510.38	9683.14
1499.1	9779.44
1487.8	10018.8
1476.46	10406
1465.11	10382.7
1453.72	10670.2
1442.32	10535.2
1430.88	10571.1
1419.42	10938.2
1407.94	10888.1
1396.42	10866.3
1384.89	11770.3
1373.32	11836.4
1361.73	11705.9
1350.11	11886.2
1338.47	12007
1326.8	11857.4
1315.11	11924.8
1303.38	11673.3
1291.63	12135.8
1279.86	11774.6
1268.05	11813.8
1256.22	11877.4
1244.37	12091.2
1232.48	11907.8
1220.57	11946
1208.63	11752.7
1196.66	12083.9
1184.67	12148.2
1172.65	12468.7
1160.6	12903.4
1148.52	12946.3
1136.42	13050.6
1124.28	13804.5
1112.12	13553.8
1099.93	14079.1
1087.72	13523.1
1075.47	13009.3
1063.2	13233.1
1050.9	13125.9
1038.56	13174.4
1026.2	13201.6
1013.82	13341.2
1001.4	13276.2
988.952	13605.2
976.476	13596.9
963.971	13775.5
951.437	13463.6
938.874	13659.5
926.281	13733.3
913.659	13744.8
901.007	14097.5
888.325	14218
875.613	14258.7
862.872	14426.4
850.1	14420.5
837.298	14536.1
824.466	14610.6
811.604	14518.1
798.711	14705.4
785.788	14941.9
772.834	15142.1
759.849	15173.8
746.834	14993.1
733.787	15557.2
720.71	15267.1
707.601	15795.4
694.461	15846.7
681.29	15744.9
668.087	16061.4
654.853	16089.3
641.586	16068
628.289	16259
614.959	16419.8
601.597	16577.3
588.203	16510.8
574.777	16584.8
561.318	16916.4
547.827	17065.8
534.304	17118.3
520.748	17805.1
507.159	17518.4
493.537	17359.3
479.882	17129.5
466.194	17484.1
452.473	18056.9
438.718	18815.6
424.93	17964.7
411.109	17585.1
397.254	18032.1
383.365	19519.1
369.442	18496.9
355.485	18556.4
341.493	18515.7
327.468	18477.4
313.408	18115.9
299.314	18223.5
285.185	17967.4
271.021	17985.2
256.822	18165.1
242.588	17935.6
228.32	18016.6
214.016	18022.1
199.676	17841.8
185.301	17931
170.891	17882.1
156.445	18123.3
141.963	18206.1
127.445	18221.3
112.89	17988.7
100.547	12829.4