File: Spicy-Raman/model_train_and_validate/Raman_Data/cellulose/20180911 NBay_Control 4c_1.txt
3201.2	122.125
3193.47	222.79
3185.73	239.134
3177.98	188.419
3170.21	259.09
3162.42	262.751
3154.62	303.858
3146.81	157.861
3138.98	236.325
3131.13	161.377
3123.27	198.226
3115.39	193.713
3107.49	176.877
3099.58	225.791
3091.66	159.79
3083.72	265.789
3075.76	212.21
3067.79	191.425
3059.8	215.435
3051.8	219.064
3043.78	255.067
3035.74	278.804
3027.69	302.446
3019.62	245.5
3011.54	224.928
3003.44	332.712
2995.32	216.032
2987.19	251.535
2979.04	298.849
2970.88	262.462
2962.69	396.875
2954.5	348.551
2946.28	375.524
2938.05	390.553
2929.8	397.644
2921.54	506.864
2913.26	454.871
2904.96	414.824
2896.65	488.196
2888.32	405.363
2879.97	455.116
2871.61	485.257
2863.23	937.566
2854.83	367.311
2846.41	382.005
2837.98	450.549
2829.53	395.837
2821.07	490.92
2812.58	432.514
2804.08	381.981
2795.57	453.637
2787.03	464.131
2778.48	429.021
2769.91	503.929
2761.32	510.469
2752.72	501.885
2744.1	500.865
2735.46	518.637
2726.8	491.327
2718.12	565.185
2709.43	511.739
2700.72	495.784
2691.99	505.932
2683.25	527.174
2674.48	570.555
2665.7	595.27
2656.9	682.605
2648.08	548.648
2639.25	775.352
2630.39	663.748
2621.52	673.365
2612.63	712.154
2603.72	615.932
2594.79	709.229
2585.85	678.732
2576.88	699.067
2567.9	762.689
2558.9	714.223
2549.88	723.548
2540.84	779.53
2531.79	824.522
2522.71	822.816
2513.61	853.244
2504.5	879.977
2495.37	853.266
2486.22	947.289
2477.05	973.647
2467.86	1003.42
2458.65	973.129
2449.42	1034.44
2440.17	26140.7
2430.91	1040.64
2421.62	1160.85
2412.31	1085.16
2402.99	1100.3
2393.65	1139.7
2384.28	1175.46
2374.9	1173
2365.49	1201.61
2356.07	1240.44
2346.63	1248.16
2337.17	1272.99
2327.68	1359.34
2318.18	1329.15
2308.66	1404.77
2299.12	1429.03
2289.55	1405.65
2279.97	1416.24
2270.37	1440.3
2260.74	1568.84
2251.1	1595.82
2241.43	1538.69
2231.75	1612.54
2222.04	1679.38
2212.32	1649.11
2202.57	1622.3
2192.8	1708.6
2183.02	1734.83
2173.21	1774.17
2163.38	1790.21
2153.53	1881.98
2143.65	1841.79
2133.76	1890.37
2123.85	1778.26
2113.91	1911.72
2103.96	2086.98
2093.98	1867.75
2083.98	2029.35
2073.96	2115.72
2063.91	2069.15
2053.85	2155.04
2043.76	2275.96
2033.66	2251.8
2023.53	2330.29
2013.38	2338.07
2003.2	2384.09
1993.01	2442.65
1982.79	2440.55
1972.55	2543.09
1962.29	2572.4
1952.01	2712.07
1941.7	2624.28
1931.37	2744.34
1921.02	2807.39
1910.65	2782.52
1900.25	2932.63
1889.84	2997.93
1879.39	3047.38
1868.93	2988
1858.44	3207.5
1847.93	3200.5
1837.4	3175.02
1826.85	3263.43
1816.27	3369.85
1805.67	3386.98
1795.04	3495.68
1784.39	3564.24
1773.72	3595.97
1763.02	3870.38
1752.31	3665
1741.56	3850.36
1730.8	3905.22
1720.01	3731.12
1709.19	3924.05
1698.35	4062.18
1687.49	3966.53
1676.61	4232.15
1665.7	4184.1
1654.76	4272.82
1643.8	4352.23
1632.82	4389.88
1621.81	4465.67
1610.78	4464.58
1599.73	4607.35
1588.65	4594.17
1577.54	4794.42
1566.41	4734.15
1555.25	4694.48
1544.07	4753.69
1532.87	4853.17
1521.64	5079.37
1510.38	4825.7
1499.1	4904.11
1487.8	5033.82
1476.46	5102.74
1465.11	5219.92
1453.72	5313.71
1442.32	5327.36
1430.88	5428.94
1419.42	5467.7
1407.94	5579.73
1396.42	5646.09
1384.89	6010.39
1373.32	5965.91
1361.73	6002.82
1350.11	6053.49
1338.47	6229.38
1326.8	6092.82
1315.11	6048.44
1303.38	6037.45
1291.63	6098.31
1279.86	6048.58
1268.05	6051.29
1256.22	5916.73
1244.37	5941.54
1232.48	5884.25
1220.57	6154.23
1208.63	5879.08
1196.66	5987.69
1184.67	5900.86
1172.65	6092.56
1160.6	6215.96
1148.52	6325.31
1136.42	6439.48
1124.28	7029.37
1112.12	6679.44
1099.93	7281.94
1087.72	6781.47
1075.47	6627.92
1063.2	6588.76
1050.9	6821.55
1038.56	6758.33
1026.2	6548.26
1013.82	6467.52
1001.4	6436.79
988.952	6693.07
976.476	6557.76
963.971	6734.58
951.437	6648.91
938.874	6739.32
926.281	6782.84
913.659	6761.81
901.007	7064.14
888.325	6842.77
875.613	7000.36
862.872	7126.59
850.1	7186.08
837.298	7141.26
824.466	7038.4
811.604	7296.91
798.711	7319.96
785.788	7300.14
772.834	7440.75
759.849	7538.13
746.834	7607.55
733.787	7708.94
720.71	7576.43
707.601	7771.39
694.461	7740.54
681.29	7929.14
668.087	8099.56
654.853	8060.6
641.586	8002.18
628.289	8175.9
614.959	8122.23
601.597	8355.44
588.203	8313.58
574.777	8308.12
561.318	8379.81
547.827	8583.44
534.304	8466.74
520.748	8721.73
507.159	8636.18
493.537	8608.16
479.882	8608.74
466.194	8865.39
452.473	9080.51
438.718	9214.26
424.93	9116.54
411.109	8892.39
397.254	9037.12
383.365	9784.09
369.442	9345.21
355.485	9427.08
341.493	9322.84
327.468	9512.99
313.408	9395.04
299.314	9028.83
285.185	9199.69
271.021	9142.73
256.822	9117.97
242.588	9211.86
228.32	9150.5
214.016	9150.64
199.676	9297.85
185.301	9055.82
170.891	9193.38
156.445	9197.59
141.963	9192.73
127.445	9145.33
112.89	8926.34
100.547	6833.14