File: Spicy-Raman/model_train_and_validate/Raman_Data/cellulose/20180911 NBay_Control 4c_b1.txt
3201.2	231.617
3193.47	147.126
3185.73	255.916
3177.98	146.548
3170.21	179.691
3162.42	216.874
3154.62	145.685
3146.81	178.632
3138.98	157.55
3131.13	198.618
3123.27	169.318
3115.39	164.863
3107.49	160.423
3099.58	82.1058
3091.66	184.373
3083.72	163.563
3075.76	93.8622
3067.79	134.405
3059.8	174.787
3051.8	227.177
3043.78	174.093
3035.74	121.219
3027.69	157.272
3019.62	185.131
3011.54	168.696
3003.44	104.223
2995.32	188.028
2987.19	195.638
2979.04	179.309
2970.88	258.485
2962.69	230.187
2954.5	194.08
2946.28	205.55
2938.05	169.634
2929.8	157.483
2921.54	200.388
2913.26	211.75
2904.96	187.845
2896.65	292.918
2888.32	218.272
2879.97	206.164
2871.61	147.518
2863.23	526.896
2854.83	170.123
2846.41	181.356
2837.98	204.095
2829.53	149.88
2821.07	176.424
2812.58	187.55
2804.08	183.351
2795.57	133.423
2787.03	175
2778.48	159.459
2769.91	166.713
2761.32	143.688
2752.72	192.452
2744.1	128.041
2735.46	214.22
2726.8	187.529
2718.12	273.235
2709.43	183.031
2700.72	182.657
2691.99	167.404
2683.25	163.35
2674.48	211.18
2665.7	192.261
2656.9	158.66
2648.08	184.11
2639.25	194.757
2630.39	179.689
2621.52	179.32
2612.63	222.776
2603.72	284.276
2594.79	214.587
2585.85	185.109
2576.88	159.373
2567.9	191.576
2558.9	198.395
2549.88	197.986
2540.84	208.354
2531.79	218.678
2522.71	182.451
2513.61	232.054
2504.5	213.76
2495.37	191.985
2486.22	212.874
2477.05	191.189
2467.86	247.322
2458.65	271.489
2449.42	221.665
2440.17	231.737
2430.91	238.262
2421.62	206.296
2412.31	275.651
2402.99	236.774
2393.65	229.329
2384.28	256.589
2374.9	238.751
2365.49	314.215
2356.07	279.1
2346.63	278.515
2337.17	301.948
2327.68	229.41
2318.18	198.176
2308.66	320.506
2299.12	275.599
2289.55	346.32
2279.97	223.617
2270.37	304.288
2260.74	290.15
2251.1	272.704
2241.43	319.161
2231.75	284.961
2222.04	354.61
2212.32	297.107
2202.57	319.795
2192.8	312.468
2183.02	268.682
2173.21	317.761
2163.38	303.873
2153.53	296.634
2143.65	328.891
2133.76	295.371
2123.85	340.588
2113.91	323.521
2103.96	329.351
2093.98	403.487
2083.98	392.882
2073.96	405
2063.91	329.771
2053.85	406.49
2043.76	360.549
2033.66	385.472
2023.53	407.08
2013.38	406.203
2003.2	437.243
1993.01	353.499
1982.79	476.67
1972.55	453.444
1962.29	512.581
1952.01	492.529
1941.7	469.409
1931.37	502.971
1921.02	483.06
1910.65	519.571
1900.25	584.028
1889.84	557.828
1879.39	544.176
1868.93	598.841
1858.44	653.265
1847.93	645.661
1837.4	610.344
1826.85	692.057
1816.27	702.82
1805.67	747.218
1795.04	754.748
1784.39	740.898
1773.72	678.427
1763.02	865.144
1752.31	796.607
1741.56	779.744
1730.8	811.199
1720.01	767.287
1709.19	870.677
1698.35	865.76
1687.49	995.368
1676.61	1008.08
1665.7	1071.32
1654.76	1018.47
1643.8	1099.17
1632.82	1043.52
1621.81	1035.3
1610.78	980.03
1599.73	980.787
1588.65	949.305
1577.54	935.497
1566.41	1070.51
1555.25	1056.48
1544.07	1048.31
1532.87	1124.2
1521.64	1075.43
1510.38	1101.86
1499.1	1082.13
1487.8	1119.9
1476.46	1166.09
1465.11	1146.32
1453.72	1163.71
1442.32	1203.78
1430.88	1323.16
1419.42	1371.17
1407.94	1243.71
1396.42	1331.15
1384.89	1525.11
1373.32	1608.69
1361.73	1635.86
1350.11	1514.77
1338.47	1575.47
1326.8	1538.51
1315.11	1540.56
1303.38	1448.43
1291.63	2069.61
1279.86	2142.09
1268.05	1265.27
1256.22	1122.42
1244.37	1040.45
1232.48	1018.95
1220.57	1016.62
1208.63	1000.7
1196.66	903.444
1184.67	933.852
1172.65	988.42
1160.6	1040.04
1148.52	1120.98
1136.42	1131.8
1124.28	1198.77
1112.12	1043.83
1099.93	1089.36
1087.72	999.151
1075.47	983.584
1063.2	928.405
1050.9	926.253
1038.56	900.408
1026.2	864.171
1013.82	833.336
1001.4	883.686
988.952	839.894
976.476	798.901
963.971	763.286
951.437	712.291
938.874	723.546
926.281	814.663
913.659	884.771
901.007	900.659
888.325	954.864
875.613	1136.51
862.872	1358.05
850.1	1685.31
837.298	1176.68
824.466	925.972
811.604	790.014
798.711	689.944
785.788	791.309
772.834	746.831
759.849	847.571
746.834	790.687
733.787	813.693
720.71	916.023
707.601	1027.77
694.461	961.082
681.29	985.904
668.087	988.471
654.853	910.067
641.586	988.648
628.289	1047.32
614.959	1052.11
601.597	1032.59
588.203	1037.38
574.777	938.17
561.318	1186.78
547.827	1068.42
534.304	991.427
520.748	996.221
507.159	965.149
493.537	927.07
479.882	960.49
466.194	1005.6
452.473	1074.14
438.718	1026.69
424.93	1160.76
411.109	1167.33
397.254	1258.21
383.365	1322.93
369.442	1193.8
355.485	1218.8
341.493	1164.78
327.468	1198.96
313.408	1232.97
299.314	1292.14
285.185	1238.42
271.021	1366.02
256.822	1463.27
242.588	1626.16
228.32	1815.54
214.016	1854.18
199.676	1897.15
185.301	1826.97
170.891	1795.42
156.445	1961.76
141.963	2524.02
127.445	3128.2
112.89	4101.83
100.547	3881.76