File: Spicy-Raman/model_train_and_validate/Raman_Data/cellulose/20180911 NBay_Control 4e_1.txt
3201.2	345.32
3193.47	306.862
3185.73	344.018
3177.98	401.961
3170.21	426.244
3162.42	350.334
3154.62	391.269
3146.81	415.424
3138.98	418.751
3131.13	384.823
3123.27	400.582
3115.39	408.035
3107.49	399.002
3099.58	422.845
3091.66	479.369
3083.72	552.024
3075.76	526.445
3067.79	517.256
3059.8	552.813
3051.8	515.206
3043.78	457.501
3035.74	448.511
3027.69	584.729
3019.62	563.443
3011.54	602.487
3003.44	657.407
2995.32	696.103
2987.19	762.589
2979.04	761.068
2970.88	890.779
2962.69	833.437
2954.5	1010.01
2946.28	1083.09
2938.05	1337.35
2929.8	1220.49
2921.54	1221.98
2913.26	1297.95
2904.96	1412.75
2896.65	1624.72
2888.32	1379.79
2879.97	1408.14
2871.61	1401.42
2863.23	2460.14
2854.83	3924.43
2846.41	4028.41
2837.98	3515.83
2829.53	3927.62
2821.07	15506.2
2812.58	1316.68
2804.08	1378.95
2795.57	1334.23
2787.03	1278.26
2778.48	1309.84
2769.91	1530.73
2761.32	1523.84
2752.72	1622.63
2744.1	1683.36
2735.46	1597.25
2726.8	1691.52
2718.12	1725.5
2709.43	1875.13
2700.72	1845.21
2691.99	1837.73
2683.25	1889.66
2674.48	1893.21
2665.7	2011.35
2656.9	2066.27
2648.08	2157.77
2639.25	2083.53
2630.39	2266.28
2621.52	2312.86
2612.63	2370.2
2603.72	2485.59
2594.79	2378.64
2585.85	2515.3
2576.88	2463.03
2567.9	2609.77
2558.9	2662.1
2549.88	2764.6
2540.84	2755.3
2531.79	2943.19
2522.71	2919.21
2513.61	3188.06
2504.5	3071.01
2495.37	3217.52
2486.22	3175.37
2477.05	3384.75
2467.86	3458.98
2458.65	3465.89
2449.42	3638.12
2440.17	3637.57
2430.91	3615.98
2421.62	3744.8
2412.31	3782.35
2402.99	3913.73
2393.65	3909.02
2384.28	4147.03
2374.9	4093.37
2365.49	4312.69
2356.07	4441.48
2346.63	4435.6
2337.17	4621.87
2327.68	4855.27
2318.18	4814.31
2308.66	5029.22
2299.12	5113.9
2289.55	4987.68
2279.97	5017.82
2270.37	5230.38
2260.74	5259.82
2251.1	5521.4
2241.43	5724.74
2231.75	5608.7
2222.04	5794.19
2212.32	5895.41
2202.57	6069.45
2192.8	6222.77
2183.02	6202.91
2173.21	6368.47
2163.38	6569.61
2153.53	6634.72
2143.65	6696.22
2133.76	6639.27
2123.85	6913.29
2113.91	7065.18
2103.96	7297.91
2093.98	7269.28
2083.98	7305.66
2073.96	7662.61
2063.91	7833.69
2053.85	7703.96
2043.76	7896.66
2033.66	8001.75
2023.53	7872.34
2013.38	8283.98
2003.2	8661.89
1993.01	8757.85
1982.79	8958.22
1972.55	9008.63
1962.29	9144.19
1952.01	9219.13
1941.7	9460.65
1931.37	9587.89
1921.02	9874.5
1910.65	9871.85
1900.25	10019.1
1889.84	10047.1
1879.39	10442
1868.93	10546.4
1858.44	10963.1
1847.93	11096.7
1837.4	11312.9
1826.85	11392.8
1816.27	11687.1
1805.67	11689.1
1795.04	11712.3
1784.39	11845.2
1773.72	12153.9
1763.02	12846.6
1752.31	12603.4
1741.56	12923.2
1730.8	12994.3
1720.01	13083
1709.19	13171.2
1698.35	13277
1687.49	13806.6
1676.61	13928.2
1665.7	14293.2
1654.76	14297.2
1643.8	14529.2
1632.82	14644.8
1621.81	14712.5
1610.78	14921.2
1599.73	15299.1
1588.65	15411.6
1577.54	15488.3
1566.41	15780.5
1555.25	15803.5
1544.07	16142.8
1532.87	16973.1
1521.64	16805
1510.38	16533.7
1499.1	16798.9
1487.8	17280.9
1476.46	17826.6
1465.11	17798
1453.72	18145.9
1442.32	18233.1
1430.88	18674.8
1419.42	18663.8
1407.94	18590.6
1396.42	19067.6
1384.89	20211.9
1373.32	20009
1361.73	20159.7
1350.11	20021.8
1338.47	20812.9
1326.8	20289.9
1315.11	19838.6
1303.38	20048.2
1291.63	20356.3
1279.86	20712.4
1268.05	20115
1256.22	20620.7
1244.37	20699.6
1232.48	20903.6
1220.57	20744
1208.63	21044.5
1196.66	20944.7
1184.67	20866.9
1172.65	21229.4
1160.6	22234.1
1148.52	22857.7
1136.42	22493.9
1124.28	23774.6
1112.12	23217.9
1099.93	23792.8
1087.72	23248.9
1075.47	22879.6
1063.2	23146.6
1050.9	23188
1038.56	23284.2
1026.2	23266.9
1013.82	23081.8
1001.4	23268.6
988.952	23446.6
976.476	23652.2
963.971	23986.4
951.437	23886.4
938.874	24047.6
926.281	24274.9
913.659	24362.1
901.007	24525.6
888.325	24716.4
875.613	25008.2
862.872	25290.9
850.1	25612.6
837.298	25270.8
824.466	25595.8
811.604	25490
798.711	25815
785.788	26085.6
772.834	26322
759.849	26659.7
746.834	26786.1
733.787	27008.7
720.71	27123.2
707.601	27801.7
694.461	28113.5
681.29	28357.1
668.087	28198.5
654.853	28040.4
641.586	28450.6
628.289	28658.4
614.959	28955.1
601.597	29150.5
588.203	29281.7
574.777	28940.6
561.318	29216
547.827	29480.2
534.304	29622.8
520.748	30583.5
507.159	29255.5
493.537	29454.1
479.882	29713.4
466.194	29862
452.473	30487.6
438.718	31556
424.93	30415.2
411.109	30146.3
397.254	30408
383.365	32432.9
369.442	30721.7
355.485	30581.6
341.493	30919.9
327.468	30798
313.408	30584.1
299.314	30313.4
285.185	29811.7
271.021	30176.3
256.822	30010.7
242.588	30178.6
228.32	29881.3
214.016	29998.3
199.676	29897.1
185.301	29812
170.891	29720.2
156.445	29318.6
141.963	29907.2
127.445	29558
112.89	29805.8
100.547	20868.9