File: Spicy-Raman/model_train_and_validate/Raman_Data/cellulose/20180914 NBay_Control 7c_1.txt
3201.25	160.028
3193.52	159.738
3185.78	109.08
3178.03	159.112
3170.26	100.294
3162.47	204.364
3154.67	158.175
3146.86	116.32
3139.02	186.575
3131.18	177.931
3123.31	177.58
3115.44	65.9458
3107.54	234.468
3099.63	184.74
3091.71	118.819
3083.77	122.673
3075.81	163.241
3067.84	215.865
3059.85	158.529
3051.85	178.499
3043.83	186.242
3035.79	153.546
3027.74	193.568
3019.67	185.133
3011.59	228.948
3003.49	156.337
2995.37	176.028
2987.24	127.765
2979.09	187.281
2970.93	262.465
2962.74	234.159
2954.55	324.791
2946.33	284.611
2938.1	358.997
2929.85	279.536
2921.59	306.48
2913.31	380.371
2905.01	387.434
2896.7	382.751
2888.37	311.822
2880.02	334.534
2871.66	326.097
2863.28	728.366
2854.88	212.656
2846.46	289.401
2838.03	296.519
2829.58	184.47
2821.12	256.969
2812.64	153.104
2804.14	252.111
2795.62	232.54
2787.08	251.091
2778.53	280.955
2769.96	215.972
2761.37	363.005
2752.77	184.907
2744.15	256.084
2735.51	281.871
2726.85	243.791
2718.18	273.239
2709.48	254.005
2700.77	294.492
2692.05	230.649
2683.3	256.165
2674.54	281.576
2665.76	218.145
2656.96	291.495
2648.14	260.679
2639.3	216.807
2630.45	322.71
2621.58	292.771
2612.69	178.954
2603.78	328.015
2594.85	327.34
2585.9	312.148
2576.94	297.017
2567.96	249.413
2558.96	194.791
2549.94	327.58
2540.9	352.05
2531.84	286.794
2522.76	354.173
2513.67	274.898
2504.56	349.145
2495.42	312.868
2486.27	244.808
2477.1	393.004
2467.91	363.922
2458.7	409.002
2449.48	365.928
2440.23	354.633
2430.96	343.382
2421.68	384.625
2412.37	362.887
2403.05	351.683
2393.7	514.26
2384.34	450.77
2374.96	408.304
2365.55	448.885
2356.13	478.955
2346.69	436.689
2337.22	463.222
2327.74	424.585
2318.24	457.861
2308.72	422.801
2299.17	449.13
2289.61	468.556
2280.03	579.378
2270.43	517.297
2260.8	533.074
2251.16	494.913
2241.49	524.103
2231.81	469.353
2222.1	545.303
2212.38	554.162
2202.63	536.331
2192.86	511.923
2183.08	603.714
2173.27	509.749
2163.44	531.785
2153.59	596.572
2143.72	601.878
2133.82	633.414
2123.91	615.687
2113.97	611.104
2104.02	596.754
2094.04	628.016
2084.04	668.883
2074.02	664.209
2063.98	691.882
2053.91	648.457
2043.83	698.572
2033.72	751.679
2023.59	724.419
2013.44	674.882
2003.27	714.918
1993.07	761.147
1982.85	721.37
1972.62	805.428
1962.35	832.164
1952.07	820.892
1941.77	935.681
1931.44	902.217
1921.09	862.619
1910.71	1045.42
1900.32	1052.51
1889.9	956.734
1879.46	1019.95
1869	1086
1858.51	1086.73
1848	1084.35
1837.47	1100.48
1826.91	1128.84
1816.33	1279.83
1805.73	1270.9
1795.11	1268.12
1784.46	1167.77
1773.79	1177.38
1763.09	1438.89
1752.37	1281.25
1741.63	1305.64
1730.86	1296.73
1720.07	1414.23
1709.26	1360.08
1698.42	1476.9
1687.56	1458.7
1676.67	1568.81
1665.76	1565.34
1654.83	1680.65
1643.87	1688.77
1632.89	1631.82
1621.88	1557.4
1610.85	1556.89
1599.79	1709.06
1588.71	1652.52
1577.61	1719
1566.48	1776.42
1555.32	1711.34
1544.14	1759.79
1532.94	1822.5
1521.71	1884.91
1510.45	1912.42
1499.17	1801.65
1487.86	1932.58
1476.53	2057.17
1465.18	2124.01
1453.79	2065.05
1442.39	2128.7
1430.95	2268.72
1419.49	2226.77
1408.01	2425.27
1396.49	2321.08
1384.96	2664.75
1373.39	2866.48
1361.8	2672.31
1350.19	2629.92
1338.54	2626.75
1326.87	2556.79
1315.18	2670.34
1303.46	2442.71
1291.71	2735.58
1279.93	2737.61
1268.13	2252.76
1256.3	2173.52
1244.44	2097.37
1232.56	1969.64
1220.64	2041.45
1208.7	2015.01
1196.74	1893.73
1184.74	2062.62
1172.72	2030.88
1160.67	2282.18
1148.6	2357.58
1136.49	2499.66
1124.36	2948.79
1112.2	2819.18
1100.01	3076.36
1087.79	2909.8
1075.55	2444.41
1063.27	2287.98
1050.97	2039.9
1038.64	2098.35
1026.28	2088.22
1013.89	1899.93
1001.47	2021
989.028	2071.07
976.553	1881.48
964.048	1967.96
951.514	1932.28
938.951	1855.41
926.358	1943.88
913.736	2067.92
901.084	2183.68
888.403	2119.68
875.691	2096.82
862.95	2290.63
850.179	2353.87
837.377	2099.8
824.545	2016.42
811.683	1946.04
798.791	1898.63
785.868	1984.58
772.914	2040.03
759.929	1995.2
746.914	2080.26
733.868	2072.83
720.79	2070.39
707.682	2196.73
694.542	2223.62
681.371	2164.09
668.168	2267.12
654.934	2251.9
641.668	2363.98
628.37	2353.44
615.041	2374.6
601.679	2405.35
588.285	2372.92
574.859	2483.28
561.401	2429.07
547.91	2488.2
534.387	2542.22
520.831	2655.83
507.242	2716.31
493.621	2666.85
479.966	2505.87
466.278	2680.05
452.557	2874.67
438.803	2995.15
425.015	2888.99
411.194	2684.67
397.339	2741.4
383.45	3134.42
369.527	2935.58
355.57	2867.94
341.579	2884.14
327.554	2997.45
313.494	2860.81
299.4	2819.25
285.271	2748
271.108	2596.86
256.909	2862.56
242.676	2905.69
228.407	2994.09
214.104	2964.02
199.764	3047.26
185.39	3087.16
170.98	3025.46
156.533	3179.77
142.052	3588.83
127.534	4125.52
112.98	4750.97
100.637	4017.59