File: Spicy-Raman/model_train_and_validate/Raman_Data/cellulose/20180911 NBay_Control 4f_1.txt
3201.2	244.251
3193.47	210.179
3185.73	230.743
3177.98	251.226
3170.21	259.09
3162.42	221.044
3154.62	208.122
3146.81	195.249
3138.98	223.887
3131.13	285.514
3123.27	235.394
3115.39	247.294
3107.49	300.28
3099.58	266.844
3091.66	278.608
3083.72	310.769
3075.76	269.344
3067.79	301.393
3059.8	292.666
3051.8	251.518
3043.78	327.944
3035.74	274.764
3027.69	270.185
3019.62	249.525
3011.54	313.293
3003.44	312.669
2995.32	352.052
2987.19	391.276
2979.04	378.542
2970.88	433.459
2962.69	440.531
2954.5	439.65
2946.28	482.252
2938.05	520.737
2929.8	492.134
2921.54	644.386
2913.26	607.802
2904.96	720.071
2896.65	722.531
2888.32	701.59
2879.97	634.051
2871.61	694.888
2863.23	1340.49
2854.83	657.293
2846.41	686.837
2837.98	639.241
2829.53	626.421
2821.07	690.356
2812.58	620.064
2804.08	672.287
2795.57	667.114
2787.03	631.523
2778.48	690.989
2769.91	708.532
2761.32	684.406
2752.72	698.11
2744.1	738.116
2735.46	823.054
2726.8	813.878
2718.12	744.847
2709.43	803.094
2700.72	868.554
2691.99	855.621
2683.25	839.023
2674.48	833.604
2665.7	905.845
2656.9	867.093
2648.08	964.737
2639.25	1014.2
2630.39	953.451
2621.52	955.153
2612.63	982.408
2603.72	965.81
2594.79	1127.49
2585.85	1165.1
2576.88	1137.34
2567.9	1225.36
2558.9	1111.01
2549.88	1141.12
2540.84	1167.5
2531.79	1304.9
2522.71	1162.68
2513.61	1303.07
2504.5	1385.88
2495.37	1375.89
2486.22	1440.45
2477.05	1359.56
2467.86	1480.4
2458.65	1523.16
2449.42	1555.17
2440.17	1611.63
2430.91	1632.8
2421.62	1636.38
2412.31	1660.88
2402.99	1723.57
2393.65	1792.94
2384.28	1785.72
2374.9	4273.3
2365.49	1754.08
2356.07	1936.47
2346.63	1846.45
2337.17	2055.31
2327.68	2044.14
2318.18	2063.76
2308.66	2086.7
2299.12	2075.5
2289.55	2220.52
2279.97	2117.58
2270.37	2238.21
2260.74	2270.59
2251.1	2245.6
2241.43	2462.58
2231.75	2470.78
2222.04	2515.72
2212.32	2463.65
2202.57	2518.39
2192.8	2576.2
2183.02	2534.24
2173.21	2753.93
2163.38	2639.07
2153.53	2712.55
2143.65	2808.73
2133.76	2845.4
2123.85	3006.35
2113.91	3114.3
2103.96	3058.73
2093.98	3117.26
2083.98	3315.15
2073.96	3275.64
2063.91	3300.95
2053.85	3229.34
2043.76	3405.9
2033.66	3453.18
2023.53	3477.81
2013.38	3655.83
2003.2	3593.69
1993.01	3668.74
1982.79	4019.92
1972.55	3979.52
1962.29	3948.77
1952.01	4022.32
1941.7	4019.91
1931.37	4234.39
1921.02	4084.05
1910.65	4219.17
1900.25	4303.7
1889.84	4503.13
1879.39	4549.31
1868.93	4567.33
1858.44	4736.94
1847.93	4701.9
1837.4	4811.85
1826.85	4850.55
1816.27	4901.33
1805.67	5141.72
1795.04	5093.79
1784.39	5283.85
1773.72	5354.4
1763.02	5907.27
1752.31	5548.99
1741.56	5524.7
1730.8	5581.89
1720.01	5723.06
1709.19	5803.51
1698.35	5937.49
1687.49	6031.99
1676.61	6054.44
1665.7	6216.63
1654.76	6369.14
1643.8	6426.14
1632.82	6562.65
1621.81	6489.09
1610.78	6542.36
1599.73	6539.56
1588.65	6806.28
1577.54	6834.98
1566.41	6904.33
1555.25	7051.91
1544.07	7071.01
1532.87	7133.44
1521.64	7415.24
1510.38	7534.21
1499.1	7523.09
1487.8	7618.2
1476.46	7778.74
1465.11	7992.82
1453.72	7980.55
1442.32	8036.58
1430.88	8163.29
1419.42	8269.54
1407.94	8378.07
1396.42	8440.94
1384.89	9100
1373.32	9093.45
1361.73	8887.98
1350.11	8929.32
1338.47	9218.58
1326.8	9122.54
1315.11	9140.67
1303.38	9064.49
1291.63	9497.01
1279.86	9406.45
1268.05	9338.24
1256.22	8968.4
1244.37	8813.74
1232.48	8829.1
1220.57	9073.27
1208.63	9115.03
1196.66	9159.24
1184.67	9078.67
1172.65	9306.27
1160.6	9484.26
1148.52	9852.22
1136.42	9703.47
1124.28	10639
1112.12	10112.6
1099.93	10584.6
1087.72	10214.7
1075.47	10013.5
1063.2	10098.7
1050.9	10041
1038.56	10130.9
1026.2	9913.01
1013.82	9892.58
1001.4	10165
988.952	10269.1
976.476	10050
963.971	10140.8
951.437	10132.7
938.874	10313.1
926.281	10358.6
913.659	10547.8
901.007	10535.9
888.325	10677.6
875.613	10897.7
862.872	11019.8
850.1	10993.9
837.298	11001
824.466	10820.7
811.604	10790.1
798.711	10973.6
785.788	11261.7
772.834	11440.6
759.849	11345.9
746.834	11576
733.787	11434
720.71	11516.1
707.601	11793.3
694.461	11849.2
681.29	11747.1
668.087	12033.8
654.853	12061.5
641.586	11942.1
628.289	12482.3
614.959	12491.4
601.597	12393.5
588.203	12506.7
574.777	12575.8
561.318	12736.2
547.827	12929.3
534.304	12960.6
520.748	13604.6
507.159	12943.5
493.537	12900.3
479.882	13156.8
466.194	13023
452.473	13493
438.718	14217.9
424.93	13491.2
411.109	13441.9
397.254	13503
383.365	14750.9
369.442	13915.2
355.485	13823.1
341.493	14033
327.468	13850.5
313.408	13976
299.314	13600.8
285.185	13836.3
271.021	13884.8
256.822	13766.1
242.588	13992.3
228.32	13869.1
214.016	13930.2
199.676	14113.2
185.301	14067
170.891	14014.2
156.445	14175
141.963	14568
127.445	14480.5
112.89	14578.4
100.547	9728.88