File: Spicy-Raman/model_train_and_validate/Raman_Data/cellulose/20181203 NBay Control 7-9d_1.txt
3201.19	1553.94
3193.46	1702.45
3185.72	1678.13
3177.97	1817.19
3170.2	1717.51
3162.41	1830.91
3154.61	1977.15
3146.8	1898.48
3138.97	2114.48
3131.12	2135.14
3123.26	2271.34
3115.38	2250.37
3107.48	2377.55
3099.57	2549.38
3091.65	2593.5
3083.71	2690.6
3075.75	2930.13
3067.78	3233.86
3059.79	3105.5
3051.79	3411.71
3043.77	3421.13
3035.73	3430.5
3027.68	3806.78
3019.61	3767.01
3011.53	3924.19
3003.43	4020.6
2995.31	4468.65
2987.18	4455.75
2979.03	4606.24
2970.86	4807.81
2962.68	4881.55
2954.49	5200.53
2946.27	5320.57
2938.04	5420.38
2929.79	5504.01
2921.53	5984.13
2913.25	6246.62
2904.95	6335.83
2896.64	6506.66
2888.31	6727.45
2879.96	6912.3
2871.6	7084.73
2863.22	7605.11
2854.82	7477.66
2846.4	7651.65
2837.97	8317.81
2829.52	8377.88
2821.06	8660.11
2812.57	8780.39
2804.07	9182.81
2795.55	9392.94
2787.02	9739.13
2778.47	9977.55
2769.9	10434.7
2761.31	10799.2
2752.71	10973.5
2744.08	11286.4
2735.44	11496.4
2726.79	11881.8
2718.11	12336.7
2709.42	12352.7
2700.71	12759.9
2691.98	13340.2
2683.24	13803
2674.47	14289.8
2665.69	14504.6
2656.89	15061.6
2648.07	15321.6
2639.24	15709.1
2630.38	16109.6
2621.51	16259.5
2612.62	17120.9
2603.71	17716.2
2594.78	17941.6
2585.84	18445.5
2576.87	18972.6
2567.89	19623.8
2558.89	19478.8
2549.87	19942.5
2540.83	20670.1
2531.77	21132.8
2522.7	21786.7
2513.6	21991.5
2504.49	22840.2
2495.36	23041.7
2486.2	23799.2
2477.03	24387.1
2467.84	25018.4
2458.64	25460
2449.41	26209.2
2440.16	26509.3
2430.89	27056.7
2421.61	27367.4
2412.3	28412.9
2402.98	28559
2393.63	29288.1
2384.27	29785.1
2374.89	30328.3
2365.48	31269.5
2356.06	31493.4
2346.62	32159.7
2337.15	32843.7
2327.67	33675.2
2318.17	34311.7
2308.65	34675.9
2299.1	35718.9
2289.54	36292.2
2279.96	36615.4
2270.35	37373.3
2260.73	37881.4
2251.09	38622.8
2241.42	39313.8
2231.74	40092.2
2222.03	40703.1
2212.31	41084.2
2202.56	42189.6
2192.79	42169.8
2183	44229.7
2173.19	44264.7
2163.36	45234
2153.51	45506.9
2143.64	46449.2
2133.75	46589.7
2123.83	48442
2113.9	48832
2103.94	50009.1
2093.96	50875
2083.96	51409
2073.94	51917.7
2063.9	52229.8
2053.84	53195.2
2043.75	54674.5
2033.64	54932.8
2023.51	55378.7
2013.36	57258.5
2003.19	58274.5
1993	58925.9
1982.78	59764.7
1972.54	60520.3
1962.28	61303.9
1951.99	62497.3
1941.69	62768.4
1931.36	64094.1
1921.01	64322.1
1910.64	65550.3
1900.24	66607.2
1889.82	67765
1879.38	68413.6
1868.92	69781.9
1858.43	70608.1
1847.92	71785.6
1837.39	72612.2
1826.83	73176.4
1816.25	73897.2
1805.65	74727.7
1795.03	75526.6
1784.38	76772.7
1773.71	78505.7
1763.01	79110.4
1752.29	80832.7
1741.55	81105.2
1730.78	81550.9
1719.99	82388.3
1709.18	83653.8
1698.34	85113.8
1687.48	85697
1676.59	86503.8
1665.68	87496.8
1654.75	88918.4
1643.79	90279.7
1632.81	91900.5
1621.8	93631.4
1610.77	95127.4
1599.71	98921.2
1588.63	104699
1577.53	103282
1566.4	101222
1555.24	101046
1544.06	99955
1532.85	100450
1521.62	101197
1510.37	103292
1499.09	104365
1487.78	104102
1476.45	104146
1465.09	105530
1453.71	106496
1442.3	108764
1430.87	111892
1419.41	112946
1407.92	114867
1396.41	113178
1384.87	116786
1373.31	119186
1361.72	122507
1350.1	123529
1338.46	123887
1326.79	121848
1315.09	121402
1303.37	122815
1291.62	129040
1279.84	130794
1268.04	123388
1256.21	123290
1244.35	124350
1232.47	124812
1220.56	127186
1208.62	127896
1196.65	128115
1184.66	129976
1172.63	127082
1160.58	134714
1148.51	134100
1136.4	136425
1124.27	132552
1112.11	126944
1099.92	126142
1087.7	125760
1075.46	125710
1063.18	125956
1050.88	126580
1038.55	126955
1026.19	126909
1013.8	127348
1001.38	127324
988.936	127397
976.46	126559
963.955	129076
951.421	129890
938.858	130861
926.265	130322
913.643	130853
900.991	131044
888.309	130829
875.597	131515
862.856	133091
850.084	134484
837.282	134644
824.45	133742
811.588	133737
798.695	134443
785.772	135055
772.818	135612
759.833	136441
746.817	136290
733.771	135339
720.693	136532
707.585	137146
694.445	138232
681.273	138186
668.07	137761
654.836	138686
641.57	138484
628.272	139700
614.942	140681
601.58	140759
588.186	139098
574.76	139620
561.301	139569
547.81	140102
534.287	141097
520.731	143075
507.142	142620
493.52	151407
479.865	143115
466.177	140081
452.456	142659
438.701	142601
424.913	142408
411.091	141843
397.236	141871
383.347	141624
369.424	140833
355.467	140217
341.476	140657
327.45	140986
313.39	140854
299.296	138935
285.167	138659
271.003	140688
256.804	140775
242.571	137974
228.302	137874
213.998	138875
199.658	138102
185.283	136063
170.873	134873
156.427	134022
141.944	134208
127.426	133126
112.872	130752
100.529	99803.6