File: Spicy-Raman/model_train_and_validate/Raman_Data/cellulose/NBay_Control 3_1.txt
3201.17	1195.98
3193.44	1261.07
3185.7	1271.18
3177.95	1289.62
3170.18	1483.49
3162.39	1317.91
3154.59	1319.48
3146.78	1557.83
3138.94	1388.92
3131.1	1539.28
3123.23	1556.89
3115.36	1500.24
3107.46	1620.68
3099.55	1740.63
3091.63	1700.31
3083.69	1844.15
3075.73	1897.63
3067.76	1950.89
3059.77	2162.46
3051.77	2060.81
3043.75	2202.47
3035.71	2278.91
3027.66	2230.02
3019.59	2382.54
3011.51	2297.47
3003.41	2561.46
2995.29	2480.35
2987.16	2627.12
2979.01	2693.6
2970.84	2938.75
2962.66	2920.98
2954.46	2990.39
2946.25	3079.28
2938.02	3140.18
2929.77	3295.3
2921.51	3312.27
2913.23	3435.03
2904.93	3385.09
2896.62	3475.93
2888.29	3652.14
2879.94	3839.28
2871.57	3862.61
2863.19	4184.14
2854.8	4082.92
2846.38	4190.45
2837.95	4266.71
2829.5	4427.19
2821.03	4372.22
2812.55	4742.3
2804.05	4893.14
2795.53	4951.85
2787	5063.56
2778.44	5387.4
2769.88	5205.97
2761.29	5369.33
2752.68	5403.71
2744.06	5611.15
2735.42	5787.64
2726.76	5985.89
2718.09	5966.21
2709.4	6178.17
2700.69	6471.24
2691.96	6413.39
2683.21	6678.72
2674.45	6854.02
2665.67	6880.67
2656.87	7290.91
2648.05	7150.78
2639.21	7466.84
2630.36	7543.2
2621.49	7736.31
2612.6	7884.76
2603.69	7926.87
2594.76	8176.07
2585.81	8289.91
2576.85	8327.16
2567.87	8490.73
2558.87	8487.64
2549.85	8783.3
2540.81	9106.42
2531.75	9144.95
2522.67	9337.1
2513.58	9439.15
2504.46	9640.48
2495.33	9808.93
2486.18	10154
2477.01	10079.8
2467.82	10239.1
2458.61	10443.4
2449.38	10573
2440.14	10610.7
2430.87	10889.9
2421.58	11056
2412.28	11301.6
2402.95	11319.8
2393.61	11890.3
2384.24	11473.6
2374.86	11906.3
2365.46	12212.9
2356.03	12173.5
2346.59	12392.1
2337.13	12259.7
2327.65	12679.1
2318.14	12959.9
2308.62	13082.7
2299.08	13051.7
2289.52	13411.3
2279.93	13464.3
2270.33	13794.3
2260.71	13832.6
2251.06	14113.1
2241.4	14063.1
2231.71	14247.9
2222.01	14492.1
2212.28	14828.5
2202.53	14873.7
2192.77	15068.2
2182.98	15122.4
2173.17	15686
2163.34	15434.6
2153.49	15747.8
2143.62	16155
2133.72	15913.8
2123.81	16154.9
2113.87	16689
2103.92	16552.2
2093.94	16666.5
2083.94	16890.5
2073.92	17188.1
2063.87	17135
2053.81	17101.5
2043.72	17463.9
2033.62	17509.9
2023.49	18023.5
2013.34	18371.7
2003.16	18405.6
1992.97	18534.7
1982.75	18685.3
1972.51	19088.9
1962.25	19060.3
1951.97	19110.6
1941.66	19478.8
1931.33	19675.5
1920.98	19783.3
1910.61	19972
1900.21	20206.6
1889.8	20187.6
1879.35	20177.9
1868.89	20717.2
1858.4	21334.6
1847.89	21328.3
1837.36	21297.1
1826.81	21582.8
1816.23	22032.8
1805.62	22137.7
1795	21945.6
1784.35	22306
1773.68	22540
1762.98	22894.3
1752.26	22756.1
1741.52	23059.7
1730.75	23114.5
1719.96	23626.2
1709.15	23985.4
1698.31	24384.9
1687.45	24399.8
1676.56	25064.6
1665.65	25574.6
1654.72	25901
1643.76	26403.5
1632.78	27187.5
1621.77	28014.9
1610.74	28732.6
1599.68	29567.3
1588.6	29847.2
1577.5	30400.5
1566.37	29979.8
1555.21	30230.1
1544.03	30403.6
1532.82	29996.7
1521.59	29952.7
1510.34	30433.7
1499.06	30270.5
1487.75	30547.2
1476.42	30613.3
1465.06	30876.1
1453.68	31043.4
1442.27	31753.3
1430.84	31633.5
1419.38	32123.1
1407.89	32384.2
1396.38	32720
1384.84	33124.4
1373.28	33596.9
1361.69	34229.5
1350.07	34900.9
1338.43	35089.4
1326.76	35427.1
1315.06	35790.7
1303.34	35377
1291.59	34978.7
1279.81	34656.4
1268.01	34783.6
1256.18	34081.3
1244.32	34143
1232.44	33229
1220.52	33144.8
1208.58	32821.4
1196.62	32526.4
1184.62	32070.1
1172.6	32104.5
1160.55	31866.3
1148.48	31852.1
1136.37	31955.7
1124.24	31850
1112.08	31637.6
1099.89	31314.2
1087.67	30739.6
1075.42	30798.4
1063.15	30740.2
1050.85	30716.5
1038.52	30318.7
1026.16	30306.1
1013.77	29868.8
1001.35	29702.6
988.903	29907.2
976.427	29626.7
963.923	30157.3
951.388	29758
938.825	29959.7
926.232	29559.6
913.61	29500.7
900.957	29665
888.276	29764.4
875.564	29817
862.822	29629.7
850.05	29504.1
837.249	29323
824.417	29301.9
811.554	29215.1
798.661	29760.5
785.738	29526.9
772.784	29349.2
759.799	29604.7
746.783	29172.8
733.737	29145.9
720.659	28984.8
707.55	29470.6
694.41	29232.4
681.239	29217
668.036	28569.5
654.801	28915.8
641.535	28416
628.237	28958.4
614.907	28957.2
601.545	28900
588.151	28835.5
574.725	28623.6
561.266	28238.8
547.775	28527
534.251	28501.5
520.695	28495
507.106	28462.1
493.484	27647.4
479.829	27744.6
466.141	27957.3
452.42	28336.7
438.665	28192.4
424.877	27905
411.055	27766.7
397.2	27816.3
383.311	27786
369.387	27555.1
355.43	27578.5
341.439	27494.9
327.413	27777.2
313.353	27579.9
299.259	26911.2
285.13	26808.4
270.966	27173.5
256.767	26935.3
242.533	26926
228.264	26707.3
213.96	26757.2
199.621	26999
185.246	26546.2
170.835	26536.9
156.389	26408.3
141.906	26237.5
127.388	26472
112.834	26029.3
100.49	20982.2