File: Spicy-Raman/model_train_and_validate/Raman_Data/cellulose/NBay_Control 1-6.txt
3201.7	29508.9
3192.17	29319.1
3182.63	29289
3173.08	29108.4
3163.51	28651.3
3153.94	28381.8
3144.35	28136.3
3134.75	28387.3
3125.14	28251.5
3115.52	27988.7
3105.89	27545
3096.24	27543.9
3086.59	27660.6
3076.92	27629.6
3067.24	27286.2
3057.55	27483.8
3047.84	26981.7
3038.13	27116.1
3028.4	27027.8
3018.66	27100.1
3008.91	27202.8
2999.15	26848.4
2989.37	27675.9
2979.59	27758.2
2969.79	27886.3
2959.98	27681.5
2950.15	27559.9
2940.32	27792.9
2930.47	27736.1
2920.61	27870.6
2910.74	28193.4
2900.86	28277.6
2890.96	27885.6
2881.05	27044.3
2871.13	26466.9
2861.2	25902.3
2851.26	25317.6
2841.3	24877.4
2831.33	24723.9
2821.35	24465.6
2811.36	24210.4
2801.35	24130.6
2791.34	23964.9
2781.3	23807
2771.26	23368.3
2761.21	23630.1
2751.14	23460.7
2741.06	23318.8
2730.97	23157.5
2720.86	22947
2710.74	22943.3
2700.61	22684.2
2690.47	22457.7
2680.31	22424.9
2670.15	22140.2
2659.97	22125
2649.77	22027.6
2639.57	21703.9
2629.35	21624.3
2619.11	21481.3
2608.87	21513.1
2598.61	21016.1
2588.34	21179.6
2578.06	20919.9
2567.76	20819.7
2557.46	20689.4
2547.13	20567.9
2536.8	20614.7
2526.45	20436.7
2516.09	20461.8
2505.72	20260.3
2495.33	19934.1
2484.93	19960.7
2474.52	19851.7
2464.09	19742.8
2453.65	19832.9
2443.2	19450.5
2432.74	19344.8
2422.26	19121.4
2411.77	19238.9
2401.26	19006.5
2390.74	18830.5
2380.21	18550.5
2369.67	18653.8
2359.11	18532
2348.54	18397.5
2337.95	18390.7
2327.36	18235.4
2316.74	18099.2
2306.12	17798.8
2295.48	17750.4
2284.83	17879.1
2274.16	17428.9
2263.48	17582.2
2252.79	17250.2
2242.08	17420.8
2231.36	17208.6
2220.63	16842.2
2209.88	16847.4
2199.12	16799.2
2188.34	16538.9
2177.56	16426.3
2166.75	16246.9
2155.94	16255
2145.11	16158.1
2134.26	15926.5
2123.4	15803.7
2112.53	15739.8
2101.65	15780.4
2090.75	15591.7
2079.83	15608.3
2068.9	15299
2057.96	15277.1
2047	15071.5
2036.03	15037.3
2025.05	14982.7
2014.05	14829.4
2003.04	14624.2
1992.01	14792.3
1980.97	14489.2
1969.91	14347.3
1958.84	14263.3
1947.76	14074.6
1936.66	13979.8
1925.55	14030.3
1914.42	13841.5
1903.28	13708
1892.12	13606.3
1880.95	13425.3
1869.77	13431.3
1858.57	13306.8
1847.35	13188.1
1836.12	13040.8
1824.88	12824.9
1813.62	12735
1802.35	12707.3
1791.06	12562.3
1779.76	12601.2
1768.44	12281.2
1757.11	12163.7
1745.76	12044.3
1734.4	11905.4
1723.02	11837.1
1711.63	11799.6
1700.22	11727.2
1688.8	11637.4
1677.37	11807.9
1665.91	11670.2
1654.45	11491.4
1642.97	11359.9
1631.47	11253.7
1619.96	11071.7
1608.43	11019.2
1596.89	10819.6
1585.33	10683.2
1573.76	10614
1562.17	10484.7
1550.57	10459
1538.95	10361.3
1527.31	10203.7
1515.66	10042.2
1504	9989.24
1492.32	9893.64
1480.62	9884.79
1468.91	9785.27
1457.18	9831.94
1445.44	9590.14
1433.68	9562.51
1421.91	9552.98
1410.12	9451.25
1398.31	9402.68
1386.49	9707.21
1374.65	9664.71
1362.8	9390.41
1350.93	9173.67
1339.05	9072.06
1327.15	8789.08
1315.23	8711.27
1303.3	8544.65
1291.35	9120.84
1279.39	8957.21
1267.4	8302.83
1255.41	8129.23
1243.4	8017.43
1231.37	7859.18
1219.32	7716.89
1207.26	7657.82
1195.18	7576.14
1183.09	7506.02
1170.98	7613.51
1158.85	7553.79
1146.71	7649.57
1134.55	7561.15
1122.37	7718.19
1110.18	7466.95
1097.97	7538.71
1085.75	7179.01
1073.51	6950.89
1061.25	6902.74
1048.97	6681.68
1036.68	6603.5
1024.37	6473.75
1012.05	6339.26
999.706	6253.71
987.347	6136.02
974.972	6118.59
962.579	5940.88
950.17	5887.48
937.744	5784.95
925.3	5723.84
912.84	5696.97
900.363	5629.11
887.868	5558.42
875.357	5567.79
862.828	5617
850.282	5603.33
837.719	5318.2
825.138	5148.04
812.541	5050.73
799.926	4847.7
787.293	4809.39
774.643	4760.31
761.976	4694.58
749.292	4697.97
736.589	4635.43
723.87	4478.76
711.132	4516.72
698.378	4472.28
685.605	4385.9
672.815	4313.41
660.007	4280.14
647.181	4179.73
634.338	4150.59
621.476	4090.44
608.597	4051.78
595.7	4017.1
582.785	3965.09
569.852	3862.98
556.901	3830.6
543.932	3690.4
530.945	3671.8
517.94	3705.11
504.917	3574.27
491.875	3528.1
478.816	3466.73
465.738	3385.47
452.641	3377.87
439.526	3364.57
426.393	3273.3
413.242	3207.92
400.072	3153.14
386.884	3166.72
373.677	3082.81
360.451	2924.51
347.207	3002.47
333.944	2839.06
320.663	2783.33
307.362	2766.26
294.044	2677.94
280.706	2586.12
267.349	2552.54
253.974	2590.96
240.579	2564.92
227.166	2577.13
213.734	2519.54
200.282	2528.97
186.812	2459.54
173.322	2321.77
159.813	2385.06
146.285	2539.59
132.738	2651.25
119.172	2798.51
105.586	2830.39
100.146	2320.55