File: Spicy-Raman/model_train_and_validate/Raman_Data/cellulose/NBay_Control 1_1.txt
3201.17	29.4783
3193.44	33.6285
3185.7	54.539
3177.95	41.8706
3170.18	100.292
3162.39	41.7061
3154.59	12.4872
3146.78	70.6215
3138.94	70.4824
3131.1	37.2406
3123.23	99.1124
3115.36	45.3369
3107.46	65.8142
3099.55	65.6842
3091.63	77.8457
3083.69	73.6026
3075.73	53.0522
3067.76	44.8013
3059.77	73.1659
3051.77	60.8506
3043.75	56.6812
3035.71	56.5686
3027.66	56.4561
3019.59	52.3193
3011.51	88.3641
3003.41	92.1967
2995.29	84.0118
2987.16	91.8294
2979.01	51.8
2970.84	83.5099
2962.66	83.343
2954.46	99.0195
2946.25	75.1043
2938.02	67.0641
2929.77	133.859
2921.51	121.804
2913.23	105.874
2904.93	117.402
2896.62	160.127
2888.29	124.726
2879.94	147.814
2871.57	128.107
2863.19	294.44
2854.8	115.992
2846.38	96.4651
2837.95	115.525
2829.5	126.82
2821.03	115.058
2812.55	118.653
2804.05	126.053
2795.53	121.986
2787	144.564
2778.44	125.288
2769.88	136.401
2761.29	90.7493
2752.68	132.074
2744.06	150.635
2735.42	176.636
2726.76	183.777
2718.09	149.717
2709.4	130.735
2700.69	160.29
2691.96	171.123
2683.21	126.224
2674.45	166.719
2665.67	166.378
2656.87	184.487
2648.05	184.109
2639.21	187.406
2630.36	128.348
2621.49	212.255
2612.6	178.95
2603.69	156.715
2594.76	181.852
2585.81	203.255
2576.85	228.191
2567.87	231.335
2558.87	230.858
2549.85	219.582
2540.81	219.129
2531.75	272.449
2522.67	279.04
2513.58	221.342
2504.46	238.696
2495.33	238.202
2486.18	258.995
2477.01	240.754
2467.82	293.251
2458.61	278.538
2449.38	256.848
2440.14	270.358
2430.87	290.817
2421.58	272.728
2412.28	296.584
2402.95	285.519
2393.61	326.618
2384.24	298.196
2374.86	332.173
2365.46	314.213
2356.03	337.674
2346.59	309.458
2337.13	329.396
2327.65	352.672
2318.14	307.512
2308.62	375.057
2299.08	343.646
2289.52	366.688
2279.93	362.527
2270.33	385.429
2260.71	398.11
2251.06	346.768
2241.4	409.867
2231.71	445.876
2222.01	388.061
2212.28	437.312
2202.53	466.365
2192.77	412.189
2182.98	474.337
2173.17	410.438
2163.34	475.624
2153.49	477.907
2143.62	480.177
2133.72	479.153
2123.81	481.405
2113.87	519.591
2103.92	489.132
2093.94	471.816
2083.94	529.25
2073.92	554.036
2063.87	517.284
2053.81	529.078
2043.72	573.01
2033.62	539.656
2023.49	625.038
2013.34	582.113
2003.16	564.901
1992.97	614.637
1982.75	670.51
1972.51	643.695
1962.25	664.451
1951.97	675.643
1941.66	730.886
1931.33	657.001
1920.98	690.08
1910.61	701.102
1900.21	696.456
1889.8	741.687
1879.35	718.306
1868.89	667.097
1858.4	755.428
1847.89	772.316
1837.36	807.62
1826.81	778.173
1816.23	813.301
1805.62	829.895
1795	800.576
1784.35	823.213
1773.68	873.125
1762.98	880.315
1752.26	899.583
1741.52	894.582
1730.75	829.286
1719.96	908.7
1709.15	903.695
1698.31	979.588
1687.45	992.37
1676.56	984.212
1665.65	993.938
1654.72	994.706
1643.76	1093.23
1632.78	1049.42
1621.77	1106.09
1610.74	1186.03
1599.68	1151.09
1588.6	1151.46
1577.5	1049.5
1566.37	1085.08
1555.21	1129.23
1544.03	1100.57
1532.82	1106.8
1521.59	1156.36
1510.34	1075.89
1499.06	1096.51
1487.75	1119.89
1476.42	1148.89
1465.06	1152.03
1453.68	1160.85
1442.27	1183.85
1430.84	1212.42
1419.38	1223.85
1407.89	1206.95
1396.38	1204.23
1384.84	1356.26
1373.28	1322.31
1361.69	1313.72
1350.07	1335.89
1338.43	1397
1326.76	1338.18
1315.06	1210.23
1303.34	1265.64
1291.59	1237.89
1279.81	1276.42
1268.01	1235
1256.18	1265.11
1244.32	1237.58
1232.44	1281.19
1220.52	1245.55
1208.58	1226.38
1196.62	1196.44
1184.62	1201.82
1172.6	1212.56
1160.55	1247.49
1148.48	1368.28
1136.37	1287.35
1124.24	1271
1112.08	1262.73
1099.89	1337.05
1087.67	1280.82
1075.42	1277.85
1063.15	1240.51
1050.85	1266.66
1038.52	1287.41
1026.16	1174.11
1013.77	1226.41
1001.35	1205.25
988.903	1205.05
976.427	1204.85
963.923	1217.61
951.388	1245.85
938.825	1253.27
926.232	1247.76
913.61	1244.84
900.957	1329.17
888.276	1328.61
875.564	1271.85
862.822	1312.18
850.05	1273.5
837.249	1222.32
824.417	1297.87
811.554	1297.33
798.661	1279.16
785.738	1316.32
772.784	1318.22
759.799	1292.6
746.783	1346.9
733.737	1318.82
720.659	1315.69
707.55	1349.7
694.41	1284.73
681.239	1318.64
668.036	1354.83
654.801	1265.74
641.535	1355.71
628.237	1386.64
614.907	1358.97
601.545	1401.87
588.151	1415.48
574.725	1383.06
561.266	1435.22
547.775	1364.39
534.251	1344.3
520.695	1408.11
507.106	1364.1
493.484	1408.47
479.829	1386.04
466.141	1434.86
452.42	1405.36
438.665	1442.07
424.877	1438.57
411.055	1475.01
397.2	1464.39
383.311	1516.92
369.387	1412.96
355.43	1507.2
341.439	1394.47
327.413	1437.35
313.353	1526.19
299.259	1386.56
285.13	1452.09
270.966	1409.56
256.767	1470.11
242.533	1420.88
228.264	1417.38
213.96	1468.35
199.621	1437.56
185.246	1427.24
170.835	1455.25
156.389	1485.35
141.906	1584.78
127.388	1556.26
112.834	1630.46
100.49	1317.65