File: Spicy-Raman/model_train_and_validate/Raman_Data/cellulose/NBay_Control 1_2.txt
3201.17	46.323
3193.44	16.8142
3185.7	46.1483
3177.95	33.4965
3170.18	25.073
3162.39	4.17061
3154.59	37.4616
3146.78	49.8505
3138.94	37.3142
3131.1	45.5163
3123.23	28.9078
3115.36	49.4584
3107.46	49.3607
3099.55	53.3684
3091.63	57.36
3083.69	53.1574
3075.73	36.7284
3067.76	52.947
3059.77	77.2307
3051.77	52.7372
3043.75	44.5352
3035.71	72.731
3027.66	60.4887
3019.59	32.1965
3011.51	64.2648
3003.41	56.1197
2995.29	36.0051
2987.16	83.8443
2979.01	55.7846
2970.84	43.7433
2962.66	59.5307
2954.46	79.2156
2946.25	35.5757
2938.02	55.2292
2929.77	98.4261
2921.51	43.2207
2913.23	50.9765
2904.93	66.5278
2896.62	66.3942
2888.29	89.6469
2879.94	77.7971
2871.57	77.6405
2863.19	216.956
2854.8	92.7936
2846.38	57.8791
2837.95	84.718
2829.5	73.0178
2821.03	95.882
2812.55	65.0679
2804.05	80.2154
2795.53	76.241
2787	95.1082
2778.44	102.509
2769.88	94.7228
2761.29	71.8432
2752.68	79.2443
2744.06	86.615
2735.42	93.9552
2726.76	105.016
2718.09	86.0871
2709.4	123.265
2700.69	111.83
2691.96	93.0016
2683.21	103.949
2674.45	66.6878
2665.67	110.919
2656.87	81.1741
2648.05	95.7365
2639.21	124.937
2630.36	106.346
2621.49	164.68
2612.6	105.909
2603.69	72.8908
2594.76	149.119
2585.81	108.887
2576.85	141.261
2567.87	122.897
2558.87	115.429
2549.85	151.188
2540.81	114.953
2531.75	114.715
2522.67	132.365
2513.58	189.211
2504.46	163.881
2495.33	110.213
2486.18	141.915
2477.01	155.782
2467.82	141.326
2458.61	165.713
2449.38	182.96
2440.14	154.49
2430.87	175.191
2421.58	185.315
2412.28	198.886
2402.95	146.241
2393.61	180.682
2384.24	187.239
2374.86	214.528
2365.46	203.72
2356.03	189.511
2346.59	213.182
2337.13	219.597
2327.65	229.408
2318.14	222.092
2308.62	190.938
2299.08	244.975
2289.52	217.297
2279.93	227.003
2270.33	246.81
2260.71	253.036
2251.06	249.135
2241.4	215.012
2231.71	261.491
2222.01	254.247
2212.28	270.399
2202.53	286.481
2192.77	259.28
2182.98	285.265
2173.17	278.039
2163.34	267.538
2153.49	306.519
2143.62	276.266
2133.72	282.241
2123.81	288.188
2113.87	310.447
2103.92	319.566
2093.94	357.929
2083.94	334.434
2073.92	336.957
2063.87	336.235
2053.81	361.322
2043.72	338.011
2033.62	337.285
2023.49	330.148
2013.34	425.39
2003.16	386.175
1992.97	347.127
1982.75	394.044
1972.51	361.484
1962.25	411.327
1951.97	404.123
1941.66	381.195
1931.33	408.661
1920.98	483.056
1910.61	422.539
1900.21	446.606
1889.8	464.333
1879.35	438.446
1868.89	443.697
1858.4	455.114
1847.89	500.461
1837.36	477.79
1826.81	439.837
1816.23	506.395
1805.62	480.788
1795	488.902
1784.35	503.075
1773.68	514.14
1762.98	683.003
1752.26	536.115
1741.52	531.914
1730.75	512.649
1719.96	532.583
1709.15	576.443
1698.31	536.227
1687.45	585.857
1676.56	545.79
1665.65	592.197
1654.72	614.64
1643.76	601.427
1632.78	688.777
1621.77	640.055
1610.74	685.721
1599.68	704.751
1588.6	665.094
1577.5	678.23
1566.37	670.884
1555.21	611.18
1544.03	659.181
1532.82	657.708
1521.59	673.582
1510.34	620.154
1499.06	664.812
1487.75	628.863
1476.42	690.483
1465.06	691.79
1453.68	713.052
1442.27	751.289
1430.84	718.363
1419.38	747.906
1407.89	743.392
1396.38	803.758
1384.84	759.733
1373.28	786.089
1361.69	829.127
1350.07	785.326
1338.43	814.218
1326.76	812.369
1315.06	777.214
1303.34	841.913
1291.59	776.444
1279.81	799.486
1268.01	764.656
1256.18	757.422
1244.32	722.836
1232.44	693.865
1220.52	771.317
1208.58	783.146
1196.62	762.359
1184.62	733.541
1172.6	712.952
1160.55	746.34
1148.48	779.569
1136.37	777.773
1124.24	789.359
1112.08	771.519
1099.89	807.026
1087.67	797.188
1075.42	763.53
1063.15	780.276
1050.85	746.801
1038.52	755.599
1026.16	722.325
1013.77	762.574
1001.35	786.944
988.903	808.586
976.427	736.44
963.923	784.049
951.388	769.267
938.825	757.133
926.232	775.985
913.61	751.02
900.957	772.353
888.276	783.34
875.564	771.284
862.822	817.882
850.05	734.615
837.249	788.676
824.417	758.987
811.554	782.435
798.661	818.357
785.738	786.277
772.784	844.563
759.799	790.059
746.783	735.806
733.737	813.686
720.659	851.472
707.55	819.728
694.41	778.247
681.239	783.787
668.036	831.095
654.801	807.034
641.535	802.658
628.237	834.916
614.907	813.433
601.545	833.35
588.151	831.35
574.725	904.31
561.266	844.245
547.775	866.277
534.251	880.994
520.695	840.554
507.106	862.415
493.484	817.434
479.829	846.364
466.141	849.059
452.42	856.465
438.665	856.748
424.877	866.44
411.055	857.288
397.2	864.575
383.311	930.252
369.387	832.388
355.43	930.371
341.439	897.936
327.413	909.628
313.353	861.223
299.259	898.268
285.13	875.387
270.966	845.734
256.767	834.511
242.533	850.703
228.264	855.434
213.96	878.289
199.621	860.275
185.246	855.892
170.835	828.995
156.389	865.145
141.906	905.591
127.388	885.456
112.834	903.332
100.49	730.048