File: Spicy-Raman/model_train_and_validate/Raman_Data/polyamide/nylon/20191120 Set2Sample5a-1_.txt
3201.26	16.8451
3193.53	29.4256
3185.8	41.954
3178.04	37.6844
3170.27	33.4314
3162.49	16.6828
3154.68	20.8125
3146.87	41.543
3139.04	29.0228
3131.19	8.27588
3123.33	8.25955
3115.45	53.5811
3107.56	65.8157
3099.65	36.9482
3091.72	65.5557
3083.78	20.4456
3075.82	40.8103
3067.85	44.8023
3059.86	52.8432
3051.86	52.7384
3043.84	28.3412
3035.8	24.2442
3027.75	16.1307
3019.68	40.2465
3011.6	56.233
3003.5	20.0432
2995.38	32.0052
2987.25	35.9341
2979.1	51.8012
2970.94	79.535
2962.76	79.3761
2954.56	59.4131
2946.35	122.541
2938.12	114.406
2929.87	137.8
2921.6	129.665
2913.32	137.248
2905.03	152.626
2896.71	179.659
2888.38	175.4
2880.04	233.397
2871.67	163.049
2863.29	201.463
2854.89	231.989
2846.48	150.489
2838.05	96.2727
2829.6	42.2745
2821.13	72.872
2812.65	57.4142
2804.15	34.3788
2795.63	45.7456
2787.1	45.653
2778.55	26.5769
2769.98	18.945
2761.39	49.157
2752.78	56.6044
2744.16	26.3617
2735.52	56.3744
2726.87	63.761
2718.19	63.6311
2709.5	44.8245
2700.79	63.3719
2692.06	40.9216
2683.32	55.6883
2674.55	25.9347
2665.77	33.2765
2656.97	47.9676
2648.15	69.9629
2639.32	40.4218
2630.46	69.6763
2621.59	21.9579
2612.7	76.6947
2603.79	40.0909
2594.86	80.0168
2585.92	58.0742
2576.95	50.7103
2567.97	79.5234
2558.97	50.5014
2549.95	28.7984
2540.91	64.6625
2531.86	25.0945
2522.78	42.9302
2513.69	32.131
2504.57	49.878
2495.44	63.9959
2486.29	67.4111
2477.12	77.8929
2467.93	52.9985
2458.72	31.733
2449.49	56.2968
2440.24	59.6908
2430.98	45.5508
2421.69	76.9252
2412.39	52.3396
2403.06	62.6763
2393.72	45.1716
2384.35	65.882
2374.97	65.7441
2365.57	62.1535
2356.14	58.5775
2346.7	17.1925
2337.24	78.9196
2327.76	54.7853
2318.25	44.4194
2308.73	40.9163
2299.19	57.8427
2289.63	54.3255
2280.04	81.3164
2270.44	50.7155
2260.82	74.2257
2251.17	70.702
2241.51	97.4296
2231.83	56.993
2222.12	90.3266
2212.39	33.3834
2202.65	83.2814
2192.88	73.132
2183.09	79.6109
2173.28	79.4416
2163.45	75.9695
2153.6	75.8077
2143.73	46.0455
2133.84	72.2028
2123.92	52.3991
2113.99	68.6268
2104.03	52.1753
2094.05	87.8575
2084.06	64.9403
2074.03	103.682
2063.99	93.7601
2053.93	96.785
2043.84	67.6039
2033.74	86.7325
2023.61	115.395
2013.46	83.161
2003.28	92.5567
1993.09	73.2487
1982.87	69.9127
1972.63	104.643
1962.37	101.252
1952.09	119.977
1941.78	75.6108
1931.45	97.4523
1921.1	94.1041
1910.73	134.59
1900.33	140.544
1889.92	155.82
1879.48	174.139
1869.01	148.937
1858.53	136.228
1848.02	139.02
1837.48	147.965
1826.93	163.021
1816.35	171.872
1805.75	183.745
1795.12	143.618
1784.47	176.843
1773.8	152.116
1763.11	173.032
1752.39	205.97
1741.65	172.272
1730.88	174.908
1720.09	186.559
1709.28	153.122
1698.44	206.707
1687.58	209.24
1676.69	187.9
1665.78	217.243
1654.85	249.425
1643.89	237.021
1632.91	242.408
1621.9	247.769
1610.87	244.276
1599.81	252.542
1588.73	208.03
1577.63	230.955
1566.5	268.36
1555.34	224.105
1544.16	220.7
1532.96	249.182
1521.72	245.733
1510.47	291.335
1499.19	290.683
1487.88	295.774
1476.55	352.413
1465.19	440.241
1453.81	470.626
1442.4	549.251
1430.97	434.436
1419.51	359.797
1408.02	370.292
1396.51	284.848
1384.97	360.179
1373.41	376.209
1361.82	352.948
1350.2	357.738
1338.56	359.715
1326.89	375.591
1315.2	396.944
1303.47	492.975
1291.72	428.299
1279.95	314.289
1268.14	308.071
1256.31	312.856
1244.46	287.499
1232.57	289.573
1220.66	291.636
1208.72	282.81
1196.76	263.17
1184.76	270.687
1172.74	251.16
1160.69	285.61
1148.62	250.006
1136.51	281.615
1124.38	347.862
1112.22	285.657
1100.03	327.613
1087.81	342.8
1075.57	323.448
1063.29	457.598
1050.99	374.73
1038.66	329.102
1026.3	296.818
1013.91	303.989
1001.49	298.053
989.047	279.1
976.572	369.531
964.068	994.367
951.534	530.99
938.971	341.106
926.378	278.434
913.756	275.21
901.104	323.319
888.423	330.24
875.711	301.371
862.97	328.69
850.198	317.749
837.397	294.176
824.565	316.253
811.703	290.266
798.811	241.737
785.888	231.116
772.934	243.1
759.949	272.528
746.934	246.938
733.888	258.794
720.81	273.074
707.702	240.229
694.562	261.893
681.391	273.593
668.189	243.434
654.954	233.04
641.688	247.167
628.391	244.134
615.061	282.517
601.7	293.988
588.306	351.455
574.88	285.325
561.422	296.7
547.931	286.36
534.408	288.071
520.852	273.008
507.263	262.793
493.642	302.673
479.987	271.034
466.299	282.237
452.578	376.193
438.824	372.92
425.036	393.205
411.215	331.181
397.36	328.032
383.471	303.859
369.548	303.119
355.592	334.943
341.601	308.601
327.575	342.566
313.516	344.037
299.422	331.678
285.293	376.817
271.129	375.892
256.931	390.973
242.698	456.154
228.429	466.406
214.125	428.944
199.786	473.164
185.412	451.67
171.001	531.653
156.556	593.259
142.074	661.279
127.556	664.111
113.002	773.987
100.659	656.617