File: Spicy-Raman/model_train_and_validate/Raman_Data/polyamide/nylon/20191120 Set2Sample5e-1_.txt
3201.26	58.9579
3193.53	25.2219
3185.8	8.3908
3178.04	25.1229
3170.27	41.7893
3162.49	45.8778
3154.68	33.3
3146.87	41.543
3139.04	29.0228
3131.19	16.5518
3123.33	28.9084
3115.45	20.6081
3107.56	-16.4539
3099.65	36.9482
3091.72	32.7779
3083.78	-8.17825
3075.82	48.9723
3067.85	28.5106
3059.86	28.4541
3051.86	68.9656
3043.84	32.39
3035.8	56.5699
3027.75	40.3267
3019.68	68.4191
3011.6	52.2163
3003.5	24.0518
2995.38	48.0078
2987.25	59.8901
2979.1	51.8012
2970.94	27.8373
2962.76	75.4073
2954.56	75.2566
2946.35	134.4
2938.12	145.966
2929.87	161.422
2921.6	133.594
2913.32	133.326
2905.03	133.059
2896.71	132.791
2888.38	155.911
2880.04	182.827
2871.67	147.52
2863.29	232.458
2854.89	193.324
2846.48	185.217
2838.05	61.6145
2829.6	46.1176
2821.13	38.3537
2812.65	49.759
2804.15	80.2173
2795.63	64.8063
2787.1	53.2618
2778.55	49.3571
2769.98	75.78
2761.39	56.7196
2752.78	56.6044
2744.16	60.2553
2735.52	48.8578
2726.87	60.0103
2718.19	116.033
2709.5	33.6184
2700.79	93.1939
2692.06	85.5634
2683.32	74.251
2674.55	66.6893
2665.77	66.5529
2656.97	118.074
2648.15	66.2807
2639.32	99.2172
2630.46	88.0122
2621.59	47.5754
2612.7	87.6511
2603.79	94.7602
2594.86	69.1054
2585.92	61.7039
2576.95	57.9546
2567.97	86.7528
2558.97	82.9666
2549.95	79.1955
2540.91	71.8472
2531.86	118.303
2522.78	46.5077
2513.69	85.6827
2504.57	74.817
2495.44	67.5513
2486.29	70.9591
2477.12	92.0553
2467.93	84.7976
2458.72	77.5695
2449.49	126.668
2440.24	105.337
2430.98	98.1094
2421.69	83.9184
2412.39	122.126
2403.06	97.4965
2393.72	114.666
2384.35	152.569
2374.97	103.807
2365.57	110.495
2356.14	86.1433
2346.7	127.225
2337.24	106.37
2327.76	106.146
2318.25	133.258
2308.73	136.388
2299.19	142.906
2289.63	122.232
2280.04	121.975
2270.44	131.86
2260.82	151.825
2251.17	158.238
2241.51	151.184
2231.83	134.101
2222.12	127.126
2212.39	166.917
2202.65	149.906
2192.88	166.209
2183.09	152.587
2173.28	142.333
2163.45	158.545
2153.6	177.983
2143.73	177.604
2133.84	190.353
2123.92	170.297
2113.99	189.541
2104.03	156.526
2094.05	211.509
2084.06	185.08
2074.03	168.483
2063.99	200.453
2053.93	151.63
2043.84	196.373
2033.74	202.376
2023.61	217.967
2013.46	204.704
2003.28	229.796
1993.09	203.822
1982.87	228.805
1972.63	218.798
1962.37	215.161
1952.09	224.167
1941.78	267.788
1931.45	267.208
1921.1	260.355
1910.73	241.01
1900.33	268.595
1889.92	302.291
1879.48	264.318
1869.01	338.211
1858.53	297.225
1848.02	268.772
1837.48	299.012
1826.93	319.889
1816.35	309.983
1805.75	297.055
1795.12	296.404
1784.47	347.588
1773.8	337.698
1763.11	358.206
1752.39	339.245
1741.65	353.611
1730.88	361.879
1720.09	388.163
1709.28	402.319
1698.44	422.402
1687.58	421.469
1676.69	399.66
1665.78	437.463
1654.85	421.647
1643.89	453.303
1632.91	428.649
1621.9	460.143
1610.87	435.576
1599.81	440.481
1588.73	442.431
1577.63	432.675
1566.5	452.129
1555.34	500.598
1544.16	447.209
1532.96	495.466
1521.72	482.794
1510.47	510.558
1499.19	520.926
1487.88	528.373
1476.55	573.029
1465.19	654.644
1453.81	764.411
1442.4	774.075
1430.97	675.79
1419.51	643.103
1408.02	593.598
1396.51	516.11
1384.97	627.5
1373.41	609.235
1361.82	686.288
1350.2	645.605
1338.56	641.352
1326.89	570.342
1315.2	702.286
1303.47	711.767
1291.72	735.016
1279.95	636.849
1268.14	580.384
1256.31	614.735
1244.46	555.831
1232.57	546.365
1220.66	547.84
1208.72	543.865
1196.76	542.618
1184.76	630.7
1172.74	613.047
1160.69	565.832
1148.62	548.4
1136.51	587.368
1124.38	626.152
1112.22	600.68
1100.03	633.918
1087.81	701.544
1075.57	660.152
1063.29	735.331
1050.99	683.486
1038.66	663.47
1026.3	635.662
1013.91	644.667
1001.49	622.251
989.047	612.977
976.572	640.173
964.068	1038.5
951.534	764.107
938.971	648.619
926.378	644.523
913.756	650.73
901.104	674.864
888.423	729.601
875.711	681.915
862.97	693.052
850.198	711.757
837.397	715.153
824.565	672.986
811.703	696.638
798.811	659.739
785.888	635.57
772.934	671.659
759.949	700.071
746.934	705.894
733.888	666.892
720.81	717.44
707.702	671.155
694.562	681.911
681.391	741.906
668.189	757.349
654.954	735.917
641.688	765.972
628.391	766.581
615.061	803.713
601.7	809.076
588.306	826.525
574.88	800.36
561.422	769.49
547.931	806.141
534.408	876.217
520.852	833.393
507.263	819.436
493.642	798.391
479.987	867.785
466.299	891.773
452.578	884.88
438.824	958.262
425.036	897.073
411.215	803.289
397.36	890.373
383.471	953.651
369.548	953.658
355.592	930.397
341.601	951.328
327.575	1002.24
313.516	1034.42
299.422	932.843
285.293	985.699
271.129	1061.21
256.931	1060.89
242.698	1017.22
228.429	1046.57
214.125	1137.04
199.786	1138.76
185.412	1147.24
171.001	1171.44
156.556	1191.01
142.074	1311.35
127.556	1279.03
113.002	1376.23
100.659	1086.2