File: Spicy-Raman/model_train_and_validate/Raman_Data/polyamide/nylon/20191120 Set2Sample5b-1_.txt
3201.26	37.9015
3193.53	37.8329
3185.8	41.954
3178.04	62.8073
3170.27	58.505
3162.49	4.17071
3154.68	12.4875
3146.87	37.3887
3139.04	45.6073
3131.19	57.9312
3123.33	49.5573
3115.45	37.0946
3107.56	53.4753
3099.65	41.0535
3091.72	32.7779
3083.78	20.4456
3075.82	73.4585
3067.85	61.0941
3059.86	44.7135
3051.86	28.3976
3043.84	48.585
3035.8	64.6513
3027.75	52.4247
3019.68	16.0986
3011.6	76.3162
3003.5	48.1037
2995.38	64.0104
2987.25	79.8535
2979.1	55.7859
2970.94	43.7443
2962.76	119.064
2954.56	114.865
2946.35	150.212
2938.12	165.691
2929.87	177.171
2921.6	168.957
2913.32	192.147
2905.03	226.982
2896.71	203.093
2888.38	257.254
2880.04	287.856
2871.67	209.634
2863.29	220.835
2854.89	270.654
2846.48	277.826
2838.05	119.378
2829.6	65.3333
2821.13	53.6952
2812.65	88.0351
2804.15	42.0186
2795.63	80.0549
2787.1	53.2618
2778.55	83.5274
2769.98	71.991
2761.39	60.5009
2752.78	45.2835
2744.16	71.5532
2735.52	67.6493
2726.87	86.2649
2718.19	74.8601
2709.5	89.649
2700.79	59.6441
2692.06	107.884
2683.32	59.4008
2674.55	62.9844
2665.77	55.4608
2656.97	92.2454
2648.15	95.7387
2639.32	66.1448
2630.46	95.3465
2621.59	106.13
2612.7	91.3033
2603.79	91.1156
2594.86	80.0168
2585.92	94.3707
2576.95	79.6876
2567.97	93.9821
2558.97	97.3955
2549.95	115.193
2540.91	118.548
2531.86	111.133
2522.78	93.0155
2513.69	78.5425
2504.57	81.9425
2495.44	78.2173
2486.29	124.178
2477.12	113.299
2467.93	127.196
2458.72	98.7248
2449.49	84.4452
2440.24	122.893
2430.98	143.66
2421.69	87.415
2412.39	115.147
2403.06	94.0145
2393.72	97.2928
2384.35	121.362
2374.97	152.25
2365.57	113.948
2356.14	127.492
2346.7	82.5241
2337.24	126.958
2327.76	164.356
2318.25	105.923
2308.73	143.207
2299.19	166.723
2289.63	166.372
2280.04	128.751
2270.44	118.336
2260.82	124.834
2251.17	151.504
2241.51	154.544
2231.83	181.037
2222.12	157.235
2212.39	193.624
2202.65	139.913
2192.88	176.182
2183.09	152.587
2173.28	172.123
2163.45	165.151
2153.6	151.615
2143.73	180.893
2133.84	173.943
2123.92	186.672
2113.99	186.273
2104.03	179.353
2094.05	201.747
2084.06	198.068
2074.03	262.444
2063.99	210.152
2053.93	229.058
2043.84	231.785
2033.74	212.013
2023.61	233.994
2013.46	265.476
2003.28	280.862
1993.09	261.148
1982.87	301.896
1972.63	282.218
1962.37	291.1
1952.09	262.055
1941.78	292.992
1931.45	282.926
1921.1	307.407
1910.73	300.48
1900.33	284.211
1889.92	264.895
1879.48	304.743
1869.01	332.005
1858.53	325.09
1848.02	333.649
1837.48	332.92
1826.93	369.103
1816.35	343.743
1805.75	333.804
1795.12	333.073
1784.47	429.911
1773.8	380.291
1763.11	431.062
1752.39	417.998
1741.65	395.923
1730.88	404.098
1720.09	445.334
1709.28	414.329
1698.44	410.419
1687.58	511.143
1676.69	468.258
1665.78	467.222
1654.85	519.636
1643.89	580.702
1632.91	493.685
1621.9	507.337
1610.87	570.958
1599.81	487.465
1588.73	495.171
1577.63	532.073
1566.5	501.717
1555.34	532.613
1544.16	508.192
1532.96	544.723
1521.72	586.869
1510.47	556.71
1499.19	587.121
1487.88	657.595
1476.55	704.826
1465.19	786.145
1453.81	944.105
1442.4	1027.36
1430.97	797.886
1419.51	705.43
1408.02	570.985
1396.51	612
1384.97	700.661
1373.41	701.883
1361.82	742.312
1350.2	737.835
1338.56	694.333
1326.89	776.222
1315.2	810.544
1303.47	877.938
1291.72	834.491
1279.95	738.855
1268.14	706.913
1256.31	694.322
1244.46	648.926
1232.57	680.224
1220.66	635.058
1208.72	685.27
1196.76	632.15
1184.76	655.061
1172.74	712.971
1160.69	630.498
1148.62	707.006
1136.51	737.562
1124.38	864.303
1112.22	688.779
1100.03	793.729
1087.81	797.209
1075.57	816.574
1063.29	915.196
1050.99	820.711
1038.66	729.291
1026.3	816.905
1013.91	796.662
1001.49	810.495
989.047	795.565
976.572	811.927
964.068	1477.27
951.534	1090.47
938.971	826.924
926.378	845.614
913.756	776.76
901.104	782.637
888.423	808.961
875.711	824.939
862.97	825.547
850.198	815.979
837.397	791.233
824.565	786.837
811.703	830.413
798.811	775.572
785.888	771.226
772.934	822.03
759.949	830.084
746.934	788.206
733.888	836.104
720.81	861.424
707.702	809.844
694.562	854.859
681.391	842.963
668.189	865.542
654.954	878.194
641.688	898.12
628.391	886.206
615.061	906.004
601.7	942.707
588.306	913.783
574.88	964.785
561.422	928.695
547.931	991.433
534.408	926.629
520.852	974.686
507.263	938.887
493.642	981.901
479.987	1010.43
466.299	1007.99
452.578	1062.33
438.824	1083.36
425.036	1045.41
411.215	1040.52
397.36	1110.62
383.471	1105.58
369.548	1116.88
355.592	1028.09
341.601	1109.11
327.575	1124.91
313.516	1094.45
299.422	1084.86
285.293	1105.18
271.129	1201.02
256.931	1081.46
242.698	1243.02
228.429	1299.11
214.125	1234.63
199.786	1270.07
185.412	1233.06
171.001	1383.2
156.556	1373.03
142.074	1454.81
127.556	1460.15
113.002	1547.97
100.659	1302.1