File: Spicy-Raman/model_train_and_validate/Raman_Data/polyamide/nylon/20191120 Set2Sample5c-1_.txt
3201.26	29.479
3193.53	29.4256
3185.8	50.3448
3178.04	41.8716
3170.27	33.4314
3162.49	37.5364
3154.68	54.1125
3146.87	33.2344
3139.04	37.315
3131.19	37.2415
3123.33	61.9467
3115.45	61.8244
3107.56	37.0213
3099.65	20.5268
3091.72	61.4585
3083.78	53.1586
3075.82	32.6482
3067.85	48.8753
3059.86	28.4541
3051.86	64.9088
3043.84	80.9749
3035.8	28.2849
3027.75	28.2287
3019.68	72.4437
3011.6	60.2496
3003.5	32.0691
2995.38	36.0059
2987.25	15.9707
2979.1	87.6636
2970.94	87.4885
2962.76	55.5633
2954.56	106.944
2946.35	126.494
2938.12	197.252
2929.87	133.863
2921.6	129.665
2913.32	168.618
2905.03	191.761
2896.71	140.603
2888.38	210.48
2880.04	186.717
2871.67	147.52
2863.29	236.332
2854.89	243.589
2846.48	181.359
2838.05	77.0182
2829.6	88.3921
2821.13	88.2135
2812.65	80.3799
2804.15	53.4782
2795.63	80.0549
2787.1	76.0883
2778.55	49.3571
2769.98	60.624
2761.39	113.439
2752.78	60.378
2744.16	94.1489
2735.52	60.1327
2726.87	71.2623
2718.19	104.804
2709.5	74.7075
2700.79	85.7384
2692.06	74.403
2683.32	103.951
2674.55	77.8042
2665.77	103.527
2656.97	107.005
2648.15	66.2807
2639.32	121.265
2630.46	80.6778
2621.59	76.8526
2612.7	80.3469
2603.79	80.1817
2594.86	116.388
2585.92	94.3707
2576.95	76.0654
2567.97	43.3764
2558.97	93.7883
2549.95	86.3951
2540.91	86.2166
2531.86	111.133
2522.78	67.9728
2513.69	107.103
2504.57	78.3798
2495.44	88.8833
2486.29	102.891
2477.12	113.299
2467.93	95.3973
2458.72	119.88
2449.49	112.594
2440.24	112.359
2430.98	112.125
2421.69	167.837
2412.39	132.594
2403.06	111.425
2393.72	128.565
2384.35	162.971
2374.97	128.028
2365.57	127.76
2356.14	161.949
2346.7	144.417
2337.24	126.958
2327.76	123.267
2318.25	157.176
2308.73	105.7
2299.19	163.321
2289.63	115.442
2280.04	166.021
2270.44	145.384
2260.82	168.695
2251.17	164.971
2241.51	137.745
2231.83	157.569
2222.12	173.962
2212.39	150.225
2202.65	176.557
2192.88	166.209
2183.09	218.93
2173.28	165.503
2163.45	175.06
2153.6	197.759
2143.73	174.315
2133.84	229.736
2123.92	176.847
2113.99	202.613
2104.03	205.44
2094.05	182.223
2084.06	198.068
2074.03	249.484
2063.99	216.618
2053.93	183.891
2043.84	206.031
2033.74	208.8
2023.61	208.351
2013.46	271.873
2003.28	226.604
1993.09	216.561
1982.87	238.339
1972.63	240.995
1962.37	256.295
1952.09	258.897
1941.78	267.788
1931.45	264.064
1921.1	250.944
1910.73	278.57
1900.33	256.102
1889.92	280.477
1879.48	279.866
1869.01	279.257
1858.53	272.456
1848.02	339.827
1837.48	366.829
1826.93	319.889
1816.35	343.743
1805.75	342.991
1795.12	308.627
1784.47	353.686
1773.8	386.375
1763.11	361.242
1752.39	405.883
1741.65	380.811
1730.88	395.051
1720.09	379.136
1709.28	411.326
1698.44	371.474
1687.58	433.426
1676.69	495.101
1665.78	479.126
1654.85	484.004
1643.89	429.601
1632.91	475.948
1621.9	474.891
1610.87	467.95
1599.81	472.783
1588.73	489.311
1577.63	467.756
1566.5	507.551
1555.34	520.971
1544.16	516.904
1532.96	527.338
1521.72	552.178
1510.47	522.096
1499.19	474.878
1487.88	479.556
1476.55	676.174
1465.19	717.536
1453.81	775.821
1442.4	859.45
1430.97	738.258
1419.51	648.769
1408.02	610.558
1396.51	662.765
1384.97	650.011
1373.41	634.503
1361.82	661.078
1350.2	662.374
1338.56	677.603
1326.89	745.618
1315.2	691.183
1303.47	847.473
1291.72	746.068
1279.95	733.341
1268.14	654.651
1256.31	647.668
1244.46	621.545
1232.57	573.683
1220.66	596.9
1208.72	598.252
1196.76	626.724
1184.76	606.338
1172.74	599.544
1160.69	643.971
1148.62	637.112
1136.51	691.968
1124.38	690.372
1112.22	656.743
1100.03	727.141
1087.81	682.942
1075.57	662.804
1063.29	870.229
1050.99	701.959
1038.66	721.392
1026.3	701.33
1013.91	699.7
1001.49	684.999
989.047	683.404
976.572	726.05
964.068	1298.13
951.534	929.88
938.971	731.311
926.378	688.351
913.756	681.594
901.104	700.525
888.423	834.561
875.711	753.427
862.97	820.451
850.198	780.391
837.397	763.337
824.565	726.117
811.703	673.922
798.811	692.475
785.888	678.277
772.934	624.041
759.949	715.072
746.934	678.456
733.888	689.288
720.81	724.887
707.702	678.585
694.562	684.382
681.391	690.145
668.189	749.972
654.954	735.917
641.688	792.891
628.391	754.374
615.061	747.697
601.7	818.794
588.306	850.763
574.88	785.852
561.422	810.497
547.931	796.515
534.408	835.407
520.852	819.024
507.263	809.88
493.642	829.373
479.987	824.99
466.299	808.762
452.578	896.71
438.824	932.3
425.036	932.391
411.215	854.963
397.36	913.803
383.471	941.964
369.548	890.703
355.592	855.965
341.601	918.843
327.575	946.687
313.516	923.589
299.422	889.08
285.293	951.234
271.129	997.032
256.931	1028.88
242.698	978.45
228.429	1085.25
214.125	1059.88
199.786	1170.46
185.412	1065.94
171.001	1189.46
156.556	1242.7
142.074	1331.52
127.556	1355.05
113.002	1402.99
100.659	1221.98