File: Spicy-Raman/model_train_and_validate/Raman_Data/polyamide/nylon/Set1Sample2_7(light_spot) - 1_.txt
3201.19	-4.21121
3193.47	8.40717
3185.73	29.3673
3177.97	0
3170.2	29.252
3162.42	12.5119
3154.62	20.8122
3146.8	20.7712
3138.97	8.2921
3131.12	-4.13787
3123.26	20.6486
3115.38	4.12156
3107.49	12.3402
3099.58	12.3159
3091.65	12.2915
3083.71	20.4453
3075.76	0
3067.78	12.2186
3059.79	8.1296
3051.79	0
3043.77	20.2434
3035.73	28.2845
3027.68	28.2282
3019.62	12.0738
3011.53	16.0663
3003.43	16.0343
2995.31	40.0059
2987.18	11.9778
2979.03	15.9386
2970.87	23.8601
2962.69	27.7812
2954.49	15.8432
2946.27	23.7173
2938.04	35.5047
2929.8	43.3077
2921.53	19.6459
2913.25	31.3704
2904.96	23.4806
2896.64	58.5835
2888.31	31.1817
2879.96	35.0089
2871.6	34.9385
2863.22	34.8681
2854.82	27.065
2846.41	23.1518
2837.97	3.85084
2829.53	11.5292
2821.06	7.67061
2812.58	15.3102
2804.08	22.9188
2795.56	19.0604
2787.02	34.2392
2778.47	22.7798
2769.9	22.7336
2761.31	22.6875
2752.71	22.6414
2744.09	0
2735.45	11.2747
2726.79	18.7529
2718.12	29.9436
2709.42	18.6766
2700.71	22.3662
2691.99	29.7607
2683.24	14.85
2674.48	3.7049
2665.69	36.9732
2656.89	40.5873
2648.08	14.7288
2639.24	14.6986
2630.39	25.6698
2621.51	10.9788
2612.62	32.8686
2603.71	29.1565
2594.79	25.4595
2585.84	18.1479
2576.88	18.1105
2567.89	28.9171
2558.89	-10.8215
2549.87	46.7966
2540.83	35.923
2531.78	28.679
2522.7	39.352
2513.61	49.9807
2504.49	24.9386
2495.36	46.2185
2486.21	42.5747
2477.04	28.3242
2467.85	24.7322
2458.64	-3.52583
2449.41	45.7404
2440.16	10.5335
2430.9	42.0462
2421.61	31.4689
2412.31	17.4462
2402.98	20.8918
2393.64	45.1709
2384.27	27.7393
2374.89	44.9821
2365.49	24.1704
2356.06	27.5654
2346.62	27.5076
2337.16	58.3309
2327.68	54.7843
2318.17	30.7514
2308.65	23.8674
2299.11	51.0368
2289.55	40.7434
2279.96	23.7169
2270.36	37.1907
2260.74	10.1215
2251.09	37.0338
2241.43	23.5171
2231.74	43.5822
2222.04	56.8713
2212.31	43.3976
2202.56	46.6368
2192.8	43.2136
2183.01	36.4877
2173.2	43.0301
2163.37	46.2415
2153.52	46.143
2143.65	59.2003
2133.75	72.2016
2123.84	36.0237
2113.9	42.4825
2103.95	71.7398
2093.97	71.5863
2083.97	32.4696
2073.95	45.36
2063.91	51.7288
2053.84	80.6527
2043.76	48.2877
2033.65	73.8819
2023.52	54.4909
2013.37	83.1596
2003.2	60.6395
1993	82.8014
1982.78	50.8447
1972.54	63.4186
1962.28	91.7582
1952	88.4025
1941.69	78.7599
1931.37	59.7278
1921.01	43.9145
1910.64	62.5988
1900.25	78.0785
1889.83	87.2579
1879.39	105.725
1868.92	93.084
1858.44	99.0732
1847.93	101.946
1837.39	101.724
1826.84	92.2742
1816.26	101.28
1805.66	110.245
1795.03	85.5584
1784.38	121.958
1773.71	91.2681
1763.02	115.352
1752.3	115.099
1741.55	108.801
1730.79	105.546
1720	99.2958
1709.18	123.095
1698.35	104.85
1687.48	149.454
1676.6	134.212
1665.69	133.915
1654.75	136.588
1643.8	139.248
1632.81	141.895
1621.81	150.429
1610.77	141.265
1599.72	120.396
1588.64	143.568
1577.53	146.171
1566.4	148.762
1555.25	154.251
1544.07	145.195
1532.86	141.973
1521.63	144.546
1510.37	135.569
1499.09	155.412
1487.79	157.935
1476.45	174.771
1465.1	185.813
1453.71	202.508
1442.31	204.898
1430.87	167.525
1419.41	184.145
1407.93	197.862
1396.41	172.034
1384.88	219.48
1373.31	196.524
1361.72	184.874
1350.11	229.172
1338.46	195.191
1326.79	236.479
1315.1	222.063
1303.37	188.324
1291.62	207.237
1279.85	206.765
1268.04	200.793
1256.21	189.357
1244.36	169.758
1232.47	183.029
1220.56	141.727
1208.62	149.56
1196.66	157.356
1184.66	165.116
1172.64	156.635
1160.59	153.58
1148.51	158.603
1136.41	166.284
1124.28	176.604
1112.11	186.875
1099.93	199.76
1087.71	175.383
1075.46	201.489
1063.19	201.022
1050.89	179.445
1038.55	184.294
1026.19	181.239
1013.81	204.403
1001.39	188.24
988.942	177.369
976.466	210.785
963.962	597.128
951.428	323.768
938.864	180.886
926.271	190.775
913.649	190.328
900.997	200.146
888.315	215.036
875.604	222.193
862.862	178.356
850.09	218.607
837.289	218.092
824.457	204.928
811.594	148.916
798.702	186.335
785.778	155.749
772.824	185.455
759.84	172.514
746.824	167.117
733.778	176.673
720.7	176.254
707.591	180.787
694.451	217.417
681.28	189.786
668.077	213.922
654.843	179.07
641.576	230.032
628.279	209.951
614.949	245.98
601.587	247.82
588.193	247.226
574.767	234.542
561.308	233.978
547.817	226.196
534.294	232.853
520.738	234.686
507.149	234.12
493.527	224.022
479.872	259.142
466.184	263.258
452.463	288.645
438.708	304.467
424.92	306.082
411.099	284.199
397.243	295.223
383.354	259.444
369.431	254.148
355.474	295.395
341.483	266.831
327.457	298.582
313.397	311.705
299.303	267.179
285.174	259.631
271.01	272.746
256.812	347.525
242.578	294.213
228.309	302.589
214.005	326.808
199.666	321.474
185.291	336.488
170.88	380.71
156.434	357.296
141.952	365.377
127.434	393.539
112.88	439.402
100.536	402.865