File: Spicy-Raman/model_train_and_validate/Raman_Data/polyamide/nylon/Set1Sample2_10 - 1_.txt
3201.19	4.21121
3193.47	16.8143
3185.73	8.39066
3177.97	12.5613
3170.2	25.0732
3162.42	29.1945
3154.62	8.32486
3146.8	-8.30847
3138.97	-8.2921
3131.12	16.5515
3123.26	0
3115.38	-16.4862
3107.49	8.22683
3099.58	20.5264
3091.65	0
3083.71	4.08906
3075.76	16.3238
3067.78	4.07287
3059.79	8.1296
3051.79	0
3043.77	8.09736
3035.73	-4.04064
3027.68	4.03261
3019.62	0
3011.53	20.0829
3003.43	4.00858
2995.31	28.0041
2987.18	-15.9704
2979.03	15.9386
2970.87	19.8834
2962.69	-11.9062
2954.49	7.92161
2946.27	0
2938.04	15.7799
2929.8	35.4336
2921.53	23.5751
2913.25	27.4491
2904.96	46.9611
2896.64	-3.90557
2888.31	23.3863
2879.96	15.5595
2871.6	7.7641
2863.22	58.1135
2854.82	11.5993
2846.41	15.4345
2837.97	26.9559
2829.53	0
2821.06	23.0118
2812.58	11.4827
2804.08	11.4594
2795.56	-11.4362
2787.02	7.6087
2778.47	22.7798
2769.9	18.9447
2761.31	22.6875
2752.71	30.1885
2744.09	7.53179
2735.45	3.75823
2726.79	18.7529
2718.12	26.2006
2709.42	0
2700.71	22.3662
2691.99	14.8803
2683.24	11.1375
2674.48	7.4098
2665.69	40.6705
2656.89	33.2078
2648.08	22.0932
2639.24	7.3493
2630.39	25.6698
2621.51	18.2979
2612.62	29.2166
2603.71	18.2228
2594.79	14.5483
2585.84	7.25916
2576.88	0
2567.89	7.22927
2558.89	10.8215
2549.87	7.19947
2540.83	14.3692
2531.78	3.58487
2522.7	14.3098
2513.61	14.2802
2504.49	14.2506
2495.36	-7.11054
2486.21	21.2874
2477.04	7.08106
2467.85	17.6659
2458.64	14.1033
2449.41	7.03698
2440.16	21.067
2430.9	35.0385
2421.61	34.9654
2412.31	48.8494
2402.98	34.8196
2393.64	10.424
2384.27	20.8045
2374.89	6.92032
2365.49	20.7175
2356.06	17.2284
2346.62	20.6307
2337.16	20.5874
2327.68	34.2402
2318.17	34.1682
2308.65	13.6385
2299.11	6.80491
2289.55	30.5576
2279.96	20.3288
2270.36	47.3337
2260.74	20.243
2251.09	37.0338
2241.43	6.71917
2231.74	26.8198
2222.04	26.763
2212.31	23.368
2202.56	53.2992
2192.8	29.9171
2183.01	33.1706
2173.2	13.24
2163.37	33.0296
2153.52	23.0715
2143.65	29.6001
2133.75	29.537
2123.84	36.0237
2113.9	45.7504
2103.95	45.6526
2093.97	45.5549
2083.97	22.7287
2073.95	38.88
2063.91	61.4279
2053.84	45.1655
2043.76	25.7534
2033.65	44.9716
2023.52	60.9016
2013.37	38.3813
2003.2	41.4902
1993	54.1394
1982.78	41.3113
1972.54	38.0512
1962.28	34.8048
1952	50.5157
1941.69	63.0079
1931.37	59.7278
1921.01	59.5982
1910.64	75.1186
1900.25	68.7091
1889.83	52.978
1879.39	40.4244
1868.92	55.8504
1858.44	83.593
1847.93	71.0535
1837.39	73.981
1826.84	95.35
1816.26	76.727
1805.66	55.1226
1795.03	67.2245
1784.38	73.175
1773.71	82.1413
1763.02	72.8542
1752.3	96.9254
1741.55	90.6678
1730.79	114.593
1720	78.233
1709.18	87.0675
1698.35	98.8582
1687.48	101.629
1676.6	101.404
1665.69	119.035
1654.75	89.0788
1643.8	91.8441
1632.81	100.509
1621.81	106.185
1610.77	79.4618
1599.72	96.904
1588.64	108.408
1577.53	116.937
1566.4	122.51
1555.25	96.0432
1544.07	136.483
1532.86	139.076
1521.63	138.765
1510.37	141.338
1499.09	117.998
1487.79	114.862
1476.45	123.199
1465.1	142.933
1453.71	154.02
1442.31	128.061
1430.87	164.685
1419.41	150.149
1407.93	161.117
1396.41	143.831
1384.88	182.9
1373.31	188.101
1361.72	168.067
1350.11	170.481
1338.46	189.614
1326.79	180.837
1315.1	152.668
1303.37	177.246
1291.62	223.816
1279.85	146.114
1268.04	148.531
1256.21	142.704
1244.36	150.592
1232.47	136.589
1220.56	119.923
1208.62	133.245
1196.66	146.504
1184.66	132.634
1172.64	137.73
1160.59	169.746
1148.51	155.915
1136.41	139.464
1124.28	144.494
1112.11	181.535
1099.93	165.135
1087.71	170.068
1075.46	167.023
1063.19	166.637
1050.89	145.139
1038.55	184.294
1026.19	141.839
1013.81	146.751
1001.39	149.024
988.942	172.152
976.466	161.341
963.962	321.93
951.428	222.752
938.864	162.798
926.271	149.527
913.649	156.892
900.997	189.882
888.315	138.238
875.604	163.452
862.862	168.164
850.09	195.729
837.289	182.589
824.457	159.388
811.594	161.536
798.702	118.348
785.778	130.629
772.824	127.813
759.84	165.014
746.824	147.162
733.778	159.255
720.7	126.605
707.591	175.834
694.451	160.592
681.28	170.068
668.077	154.909
654.843	156.993
641.576	163.959
628.279	166.008
614.949	170.481
601.587	145.777
588.193	208.445
574.767	183.765
561.308	154.377
547.817	168.444
534.294	170.439
520.738	186.791
507.149	157.673
493.527	178.741
479.872	173.554
466.184	182.62
452.463	194.007
438.708	181.736
424.92	200.13
411.099	178.505
397.243	196.815
383.354	191.661
369.431	186.531
355.474	183.75
341.483	211.144
327.457	210.628
313.397	182.405
299.303	198.081
285.174	215.976
271.01	203.986
256.812	210.344
242.578	218.95
228.309	243.437
214.005	242.836
199.666	230.918
185.291	232.606
170.88	243.294
156.434	280.893
141.952	322.787
127.434	342.111
112.88	428.25
100.536	402.865