File: Spicy-Raman/model_train_and_validate/Raman_Data/polyamide/nylon/Set1Sample2_7(dark_spot) - 1_.txt
3201.19	-12.6336
3193.47	0
3185.73	29.3673
3177.97	33.4967
3170.2	4.17886
3162.42	-8.34128
3154.62	12.4873
3146.8	8.30847
3138.97	-8.2921
3131.12	4.13787
3123.26	20.6486
3115.38	0
3107.49	16.4537
3099.58	0
3091.65	4.09717
3083.71	-12.2672
3075.76	8.16192
3067.78	12.2186
3059.79	20.324
3051.79	4.05673
3043.77	8.09736
3035.73	8.08128
3027.68	0
3019.62	-16.0983
3011.53	-16.0663
3003.43	-12.0257
2995.31	8.00117
2987.18	15.9704
2979.03	23.9079
2970.87	7.95337
2962.69	39.6874
2954.49	7.92161
2946.27	19.7644
2938.04	15.7799
2929.8	3.93707
2921.53	23.5751
2913.25	27.4491
2904.96	23.4806
2896.64	23.4334
2888.31	42.8749
2879.96	35.0089
2871.6	19.4103
2863.22	46.4908
2854.82	30.9314
2846.41	7.71726
2837.97	23.1051
2829.53	15.3723
2821.06	26.8471
2812.58	0
2804.08	22.9188
2795.56	22.8724
2787.02	22.8261
2778.47	34.1697
2769.9	37.8894
2761.31	26.4687
2752.71	22.6414
2744.09	33.893
2735.45	0
2726.79	26.2541
2718.12	7.48589
2709.42	3.73531
2700.71	14.9108
2691.99	22.3205
2683.24	14.85
2674.48	14.8196
2665.69	14.7893
2656.89	7.37951
2648.08	25.7754
2639.24	33.0718
2630.39	14.6685
2621.51	10.9788
2612.62	54.781
2603.71	36.4456
2594.79	21.8224
2585.84	21.7775
2576.88	28.9768
2567.89	21.6878
2558.89	18.0359
2549.87	17.9987
2540.83	17.9615
2531.78	21.5092
2522.7	35.7746
2513.61	14.2802
2504.49	46.3145
2495.36	3.55527
2486.21	14.1916
2477.04	28.3242
2467.85	17.6659
2458.64	31.7324
2449.41	52.7774
2440.16	28.0893
2430.9	31.5346
2421.61	17.4827
2412.31	31.4032
2402.98	34.8196
2393.64	24.3228
2384.27	10.4022
2374.89	44.9821
2365.49	24.1704
2356.06	24.1197
2346.62	48.1382
2337.16	27.4498
2327.68	37.6642
2318.17	23.9178
2308.65	23.8674
2299.11	44.2319
2289.55	57.7198
2279.96	37.2694
2270.36	47.3337
2260.74	84.3459
2251.09	43.7672
2241.43	47.0342
2231.74	53.6396
2222.04	43.4898
2212.31	56.7508
2202.56	39.9744
2192.8	53.186
2183.01	26.5365
2173.2	56.2701
2163.37	46.2415
2153.52	69.2145
2143.65	65.7781
2133.75	65.6378
2123.84	68.7726
2113.9	32.6789
2103.95	71.7398
2093.97	68.3324
2083.97	55.1983
2073.95	42.12
2063.91	58.1949
2053.84	67.7483
2043.76	67.6028
2033.65	77.0942
2023.52	70.5176
2013.37	54.3736
2003.2	67.0226
1993	54.1394
1982.78	76.2671
1972.54	88.7861
1962.28	79.1019
1952	97.8742
1941.69	81.9103
1931.37	78.5892
1921.01	56.4615
1910.64	87.6383
1900.25	74.9554
1889.83	99.7233
1879.39	93.2871
1868.92	77.57
1858.44	99.0732
1847.93	89.5892
1837.39	123.302
1826.84	116.881
1816.26	131.97
1805.66	94.9333
1795.03	137.505
1784.38	125.007
1773.71	115.606
1763.02	136.602
1752.3	130.244
1741.55	114.846
1730.79	117.609
1720	123.367
1709.18	120.093
1698.35	191.725
1687.48	173.367
1676.6	164.036
1665.69	148.794
1654.75	160.342
1643.8	177.763
1632.81	165.544
1621.81	197.622
1610.77	147.151
1599.72	193.808
1588.64	164.077
1577.53	152.018
1566.4	163.347
1555.25	165.893
1544.07	159.715
1532.86	179.639
1521.63	161.892
1510.37	181.721
1499.09	181.314
1487.79	195.265
1476.45	200.557
1465.1	182.954
1453.71	193.952
1442.31	190.669
1430.87	210.116
1419.41	212.475
1407.93	178.076
1396.41	225.618
1384.88	219.48
1373.31	202.139
1361.72	224.09
1350.11	229.172
1338.46	225.863
1326.79	219.786
1315.1	216.511
1303.37	238.174
1291.62	240.395
1279.85	234.334
1268.04	211.795
1256.21	216.8
1244.36	216.305
1232.47	213.078
1220.56	152.629
1208.62	190.349
1196.66	200.765
1184.66	170.529
1172.64	175.539
1160.59	202.079
1148.51	163.979
1136.41	211.878
1124.28	176.604
1112.11	181.535
1099.93	218.405
1087.71	188.669
1075.46	198.837
1063.19	185.152
1050.89	211.111
1038.55	205.356
1026.19	220.639
1013.81	230.608
1001.39	185.626
988.942	224.319
976.466	242.012
963.962	477.702
951.428	308.227
938.864	186.054
926.271	193.353
913.649	213.476
900.997	202.712
888.315	217.596
875.604	209.423
862.862	221.671
850.09	226.233
837.289	205.412
824.457	207.458
811.594	179.204
798.702	183.817
785.778	213.527
772.824	170.418
759.84	150.012
746.824	209.519
733.778	191.603
720.7	193.631
707.591	208.029
694.451	219.887
681.28	207.04
668.077	179.498
654.843	215.865
641.576	205.56
628.279	192.862
614.949	192.4
601.587	225.954
588.193	242.378
574.767	198.273
561.308	207.445
547.817	226.196
534.294	228.052
520.738	198.765
507.149	231.731
493.527	216.872
479.872	225.857
466.184	265.629
452.463	250.79
438.708	250.182
424.92	261.347
411.099	246.619
397.243	257.734
383.354	224.384
369.431	268.138
355.474	262.832
341.483	245.948
327.457	254.605
313.397	244.746
299.303	223.417
285.174	271.119
271.01	288.79
256.812	265.216
242.578	273.687
228.309	268.463
214.005	304.113
199.666	310.154
185.291	300.355
170.88	328.898
156.434	325.836
141.952	345.203
127.434	373.415
112.88	388.101
100.536	333.866