File: Spicy-Raman/model_train_and_validate/Raman_Data/polyamide/nylon/Set1Sample2_3 - 1_.txt
3201.19	16.8448
3193.47	8.40717
3185.73	37.758
3177.97	16.7484
3170.2	20.8943
3162.42	16.6826
3154.62	24.9746
3146.8	16.6169
3138.97	20.7302
3131.12	20.6894
3123.26	20.6486
3115.38	-8.24312
3107.49	-4.11342
3099.58	32.8423
3091.65	8.19433
3083.71	12.2672
3075.76	20.4048
3067.78	20.3644
3059.79	8.1296
3051.79	16.2269
3043.77	28.3408
3035.73	8.08128
3027.68	8.06521
3019.62	4.02459
3011.53	12.0497
3003.43	20.0429
2995.31	32.0047
2987.18	43.9187
2979.03	31.8771
2970.87	11.9301
2962.69	15.875
2954.49	31.6865
2946.27	47.4346
2938.04	43.3947
2929.8	39.3707
2921.53	35.3626
2913.25	50.9768
2904.96	35.2208
2896.64	39.0557
2888.31	19.4886
2879.96	42.7887
2871.6	58.2308
2863.22	38.7423
2854.82	42.5307
2846.41	30.869
2837.97	42.3593
2829.53	34.5876
2821.06	42.1884
2812.58	34.448
2804.08	34.3783
2795.56	38.1207
2787.02	34.2392
2778.47	30.3731
2769.9	37.8894
2761.31	22.6875
2752.71	15.0943
2744.09	60.2543
2735.45	33.8241
2726.79	18.7529
2718.12	37.4294
2709.42	52.2944
2700.71	29.8216
2691.99	22.3205
2683.24	33.4124
2674.48	40.7539
2665.69	55.4598
2656.89	40.5873
2648.08	73.6439
2639.24	25.7225
2630.39	44.0054
2621.51	58.5534
2612.62	69.3893
2603.71	32.8011
2594.79	69.1043
2585.84	83.4803
2576.88	43.4652
2567.89	54.2196
2558.89	43.2862
2549.87	82.7939
2540.83	35.923
2531.78	46.6034
2522.7	60.8168
2513.61	49.9807
2504.49	57.0025
2495.36	71.1054
2486.21	46.1226
2477.04	42.4863
2467.85	56.5308
2458.64	91.6715
2449.41	66.8513
2440.16	87.7791
2430.9	59.5654
2421.61	62.9378
2412.31	52.3387
2402.98	69.6392
2393.64	69.4936
2384.27	72.8157
2374.89	69.2032
2365.49	86.3228
2356.06	93.0332
2346.62	61.892
2337.16	58.3309
2327.68	71.9044
2318.17	61.5028
2308.65	68.1927
2299.11	88.4638
2289.55	67.9057
2279.96	105.032
2270.36	111.572
2260.74	91.0936
2251.09	87.5343
2241.43	100.788
2231.74	93.8693
2222.04	97.0158
2212.31	130.193
2202.56	76.6176
2192.8	106.372
2183.01	79.6095
2173.2	92.6802
2163.37	108.998
2153.52	148.317
2143.65	134.845
2133.75	134.557
2123.84	117.896
2113.9	107.84
2103.95	136.958
2093.97	120.395
2083.97	126.631
2073.95	136.08
2063.91	116.39
2053.84	154.853
2043.76	86.9178
2033.65	144.552
2023.52	102.571
2013.37	105.549
2003.2	150.003
1993	146.495
1982.78	149.356
1972.54	145.863
1962.28	158.204
1952	138.918
1941.69	173.272
1931.37	135.173
1921.01	141.154
1910.64	162.757
1900.25	165.527
1889.83	177.632
1879.39	174.136
1868.92	195.476
1858.44	188.858
1847.93	179.178
1837.39	151.044
1826.84	221.458
1816.26	202.559
1805.66	214.365
1795.03	207.785
1784.38	204.28
1773.71	188.621
1763.02	221.598
1752.3	224.14
1741.55	217.603
1730.79	223.155
1720	243.726
1709.18	216.168
1698.35	287.588
1687.48	239.127
1676.6	229.651
1665.69	318.419
1654.75	243.482
1643.8	245.905
1632.81	251.272
1621.81	286.109
1610.77	282.531
1599.72	249.601
1588.64	269.555
1577.53	301.113
1566.4	277.106
1555.25	302.682
1544.07	322.333
1532.86	286.844
1521.63	294.875
1510.37	297.099
1499.09	279.165
1487.79	315.869
1476.45	335.216
1465.1	351.615
1453.71	370.79
1442.31	330.114
1430.87	346.407
1419.41	405.119
1407.93	364.632
1396.41	358.168
1384.88	326.406
1373.31	393.047
1361.72	389.356
1350.11	352.142
1338.46	379.227
1326.79	442.355
1315.1	433.022
1303.37	390.495
1291.62	408.948
1279.85	421.801
1268.04	354.825
1256.21	354.015
1244.36	334.04
1232.47	346.935
1220.56	346.141
1208.62	353.506
1196.66	328.278
1184.66	322.111
1172.64	340.275
1160.59	382.603
1148.51	344.088
1136.41	391.571
1124.28	396.02
1112.11	389.767
1099.93	370.223
1087.71	358.737
1075.46	392.372
1063.19	391.464
1050.89	382.639
1038.55	360.689
1026.19	391.372
1013.81	379.98
1001.39	381.71
988.942	412.121
976.466	426.774
963.962	812.613
951.428	486.947
938.864	377.277
926.271	407.331
913.649	370.369
900.997	346.407
888.315	391.673
875.604	431.616
862.862	387.286
850.09	460.091
837.289	405.753
824.457	399.736
811.594	381.125
798.702	370.152
785.778	359.229
772.824	365.897
759.84	362.53
746.824	369.153
733.778	390.672
720.7	337.612
707.591	329.38
694.451	392.832
681.28	389.432
668.077	354.079
654.843	407.199
641.576	440.486
628.279	432.109
614.949	452.993
601.587	456.767
588.193	470.213
574.767	437.651
561.308	402.829
547.817	416.297
534.294	424.897
520.738	402.32
507.149	415.683
493.527	426.594
479.872	397.033
466.184	448.25
452.463	501.58
438.708	486.202
424.92	492.085
411.099	432.171
397.243	435.805
383.354	444.093
369.431	431.353
355.474	444.256
341.483	403.726
327.457	465.233
313.397	471.021
299.303	485.99
285.174	503.179
271.01	465.272
256.812	500.71
242.578	535.97
228.309	541.476
214.005	533.332
199.666	543.336
185.291	607.485
170.88	540.654
156.434	608.977
141.952	620.917
127.434	708.818
112.88	776.203
100.536	710.022