File: Spicy-Raman/model_train_and_validate/Raman_Data/polyamide/nylon/Set1Sample2_19 - 1_.txt
3201.19	29.4785
3193.47	21.0179
3185.73	16.7813
3177.97	8.37418
3170.2	8.35772
3162.42	12.5119
3154.62	8.32486
3146.8	33.2339
3138.97	8.2921
3131.12	20.6894
3123.26	-16.5188
3115.38	20.6078
3107.49	8.22683
3099.58	16.4211
3091.65	16.3887
3083.71	8.17812
3075.76	12.2429
3067.78	16.2915
3059.79	28.4536
3051.79	20.2837
3043.77	4.04868
3035.73	16.1626
3027.68	4.03261
3019.62	8.04917
3011.53	-12.0497
3003.43	16.0343
2995.31	20.0029
2987.18	51.9039
2979.03	3.98464
2970.87	-15.9067
2962.69	15.875
2954.49	35.6473
2946.27	15.8115
2938.04	15.7799
2929.8	15.7483
2921.53	19.6459
2913.25	62.7407
2904.96	27.394
2896.64	42.9612
2888.31	3.89772
2879.96	27.2291
2871.6	15.5282
2863.22	209.209
2854.82	15.4657
2846.41	27.0104
2837.97	3.85084
2829.53	19.2153
2821.06	7.67061
2812.58	19.1378
2804.08	19.099
2795.56	0
2787.02	3.80435
2778.47	26.5765
2769.9	26.5226
2761.31	-3.78125
2752.71	18.8678
2744.09	22.5954
2735.45	0
2726.79	11.2518
2718.12	26.2006
2709.42	14.9413
2700.71	18.6385
2691.99	18.6004
2683.24	40.8374
2674.48	29.6392
2665.69	33.2759
2656.89	25.8283
2648.08	18.411
2639.24	18.3732
2630.39	25.6698
2621.51	21.9575
2612.62	40.1728
2603.71	10.9337
2594.79	21.8224
2585.84	43.555
2576.88	14.4884
2567.89	-3.61464
2558.89	18.0359
2549.87	21.5984
2540.83	28.7384
2531.78	28.679
2522.7	10.7324
2513.61	10.7102
2504.49	24.9386
2495.36	17.7764
2486.21	39.0268
2477.04	24.7837
2467.85	21.199
2458.64	31.7324
2449.41	3.51849
2440.16	7.02233
2430.9	17.5192
2421.61	31.4689
2412.31	41.8709
2402.98	27.8557
2393.64	27.7975
2384.27	34.6742
2374.89	3.46016
2365.49	6.90582
2356.06	17.2284
2346.62	24.0691
2337.16	27.4498
2327.68	0
2318.17	10.2505
2308.65	30.6867
2299.11	34.0245
2289.55	44.1387
2279.96	37.2694
2270.36	37.1907
2260.74	23.6169
2251.09	37.0338
2241.43	40.315
2231.74	6.70495
2222.04	46.8352
2212.31	30.0445
2202.56	33.312
2192.8	59.8343
2183.01	33.1706
2173.2	46.3401
2163.37	36.3326
2153.52	39.5512
2143.65	36.178
2133.75	49.2284
2123.84	42.5735
2113.9	45.7504
2103.95	45.6526
2093.97	55.3167
2083.97	55.1983
2073.95	48.6
2063.91	35.5635
2053.84	38.7133
2043.76	51.5069
2033.65	48.1839
2023.52	48.0802
2013.37	31.9845
2003.2	44.6817
1993	63.6934
1982.78	60.3781
1972.54	44.393
1962.28	60.1175
1952	63.1446
1941.69	53.5567
1931.37	72.3021
1921.01	65.8717
1910.64	46.9491
1900.25	62.4628
1889.83	62.327
1879.39	83.9584
1868.92	86.8784
1858.44	65.0168
1847.93	101.946
1837.39	80.1461
1826.84	64.5919
1816.26	107.418
1805.66	91.8709
1795.03	82.5027
1784.38	88.4198
1773.71	100.395
1763.02	200.349
1752.3	84.8098
1741.55	120.89
1730.79	93.4838
1720	102.305
1709.18	90.0699
1698.35	80.884
1687.48	116.574
1676.6	125.264
1665.69	119.035
1654.75	112.833
1643.8	139.248
1632.81	97.5527
1621.81	109.135
1610.77	129.493
1599.72	149.761
1588.64	102.548
1577.53	134.478
1566.4	107.926
1555.25	113.506
1544.07	133.579
1532.86	118.794
1521.63	106.964
1510.37	121.147
1499.09	132.388
1487.79	152.192
1476.45	160.445
1465.1	154.367
1453.71	159.725
1442.31	173.594
1430.87	178.882
1419.41	184.145
1407.93	172.423
1396.41	163.573
1384.88	163.203
1373.31	160.026
1361.72	162.465
1350.11	162.097
1338.46	167.306
1326.79	166.926
1315.1	155.444
1303.37	188.324
1291.62	198.948
1279.85	176.44
1268.04	154.033
1256.21	164.658
1244.36	161.544
1232.47	144.784
1220.56	158.08
1208.62	135.964
1196.66	162.782
1184.66	173.236
1172.64	162.036
1160.59	137.414
1148.51	139.786
1136.41	147.51
1124.28	171.252
1112.11	168.187
1099.93	205.087
1087.71	154.124
1075.46	180.279
1063.19	150.766
1050.89	187.361
1038.55	202.723
1026.19	181.239
1013.81	178.197
1001.39	183.012
988.942	232.144
976.466	210.785
963.962	555.589
951.428	315.998
938.864	152.461
926.271	183.041
913.649	164.608
900.997	187.316
888.315	199.676
875.604	181.33
862.862	175.808
850.09	162.684
837.289	172.445
824.457	149.268
811.594	159.012
798.702	166.191
785.778	153.237
772.824	180.442
759.84	165.014
746.824	169.611
733.778	189.115
720.7	158.876
707.591	185.74
694.451	177.886
681.28	182.392
668.077	191.793
654.843	169.258
641.576	166.406
628.279	190.421
614.949	197.271
601.587	204.087
588.193	213.293
574.767	200.691
561.308	217.093
547.817	204.539
534.294	194.444
520.738	177.212
507.149	148.117
493.527	162.058
479.872	171.176
466.184	201.594
452.463	210.569
438.708	214.779
424.92	237.802
411.099	204.342
397.243	222.589
383.354	198.673
369.431	205.184
355.474	204.683
341.483	164.739
327.457	212.943
313.397	228.584
299.303	188.868
285.174	211.381
271.01	226.906
256.812	230.921
242.578	221.23
228.309	229.786
214.005	256.453
199.666	253.557
185.291	239.381
170.88	265.821
156.434	258.422
141.952	309.338
127.434	272.794
112.88	343.492
100.536	316.06